  STEP   TOTAL TIME             LOCATION OF OBSERVATION POINTS (K,I,J)
                      1  32  50     1  19  57     1  21  49     1  28  77     1  25  61     1  13  32     1  20  70     1  31  33     1  34  39     1  19  66     1  23  75     1  22  39     1  35  56     1  18  45     1   6  67     1  31  60
                      1   9  53     1  22  61     1  12  41     1  32  41
     1    59.811       4.88295E-23   3.10848E-18   1.41879E-13   1.08767E-33   1.56035E-22   2.61854E-03   4.30591E-27   3.33032E-15   2.07521E-20   2.40014E-24   1.16451E-30   1.77945E-08   5.26250E-29   2.40983E-10   2.37667E-31   1.99084E-26
                       3.30090E-19   2.06148E-21   1.15164E-09   3.74409E-19
     2    119.62       4.91473E-23   3.17868E-18   1.53048E-13   1.08843E-33   1.57573E-22   5.44405E-03   4.31741E-27   3.44582E-15   2.09646E-20   2.41217E-24   1.16601E-30   2.19894E-08   5.27243E-29   2.76373E-10   2.38225E-31   1.99899E-26
                       3.37573E-19   2.08558E-21   1.31632E-09   3.78405E-19
     3    179.43       4.94680E-23   3.25085E-18   1.65349E-13   1.08919E-33   1.59130E-22   1.33694E-02   4.32895E-27   3.56697E-15   2.11799E-20   2.42427E-24   1.16752E-30   2.75390E-08   5.28239E-29   3.18498E-10   2.38785E-31   2.00719E-26
                       3.45260E-19   2.11003E-21   1.51214E-09   3.82456E-19
     4    239.24       4.97916E-23   3.32505E-18   1.78924E-13   1.08996E-33   1.60707E-22   3.72934E-02   4.34053E-27   3.69414E-15   2.13980E-20   2.43645E-24   1.16903E-30   3.50538E-08   5.29237E-29   3.68974E-10   2.39346E-31   2.01543E-26
                       3.53161E-19   2.13484E-21   1.74679E-09   3.86560E-19
     5    299.06       5.01180E-23   3.40136E-18   1.93938E-13   1.09072E-33   1.62303E-22   0.10726       4.35214E-27   3.82775E-15   2.16189E-20   2.44870E-24   1.17054E-30   4.55591E-08   5.30238E-29   4.29898E-10   2.39909E-31   2.02372E-26
                       3.61280E-19   2.16002E-21   2.03073E-09   3.90721E-19
     6    358.87       5.04474E-23   3.47984E-18   2.10584E-13   1.09148E-33   1.63920E-22   0.29241       4.36379E-27   3.96827E-15   2.18428E-20   2.46103E-24   1.17205E-30   6.09717E-08   5.31242E-29   5.04029E-10   2.40474E-31   2.03206E-26
                       3.69626E-19   2.18556E-21   2.38080E-09   3.94938E-19
     7    418.68       5.07797E-23   3.56057E-18   2.29081E-13   1.09225E-33   1.65558E-22   0.72468       4.37548E-27   4.11621E-15   2.20696E-20   2.47343E-24   1.17356E-30   8.54813E-08   5.32249E-29   5.95201E-10   2.41041E-31   2.04045E-26
                       3.78206E-19   2.21148E-21   2.84335E-09   3.99212E-19
     8    478.49       5.11150E-23   3.64362E-18   2.49687E-13   1.09301E-33   1.67216E-22    1.6176       4.38720E-27   4.27214E-15   2.22993E-20   2.48591E-24   1.17508E-30   1.30077E-07   5.33258E-29   7.09971E-10   2.41610E-31   2.04888E-26
                       3.87028E-19   2.23779E-21   3.54215E-09   4.03544E-19
     9    538.30       5.14534E-23   3.72907E-18   2.72701E-13   1.09378E-33   1.68896E-22    3.2713       4.39896E-27   4.43669E-15   2.25322E-20   2.49846E-24   1.17660E-30   2.28508E-07   5.34270E-29   8.69008E-10   2.42180E-31   2.05737E-26
                       3.96099E-19   2.26448E-21   4.87337E-09   4.07937E-19
    10    598.11       5.17948E-23   3.81701E-18   2.98477E-13   1.09454E-33   1.70597E-22    6.0612       4.41077E-27   4.61057E-15   2.27681E-20   2.51109E-24   1.17812E-30   4.95141E-07   5.35285E-29   1.12070E-09   2.42753E-31   2.06590E-26
                       4.05427E-19   2.29158E-21   8.35974E-09   4.12389E-19
    11    657.92       5.21393E-23   3.90751E-18   3.27429E-13   1.09531E-33   1.72320E-22    10.412       4.42261E-27   4.79461E-15   2.30072E-20   2.52380E-24   1.17964E-30   1.33269E-06   5.36303E-29   1.62686E-09   2.43327E-31   2.07448E-26
                       4.15023E-19   2.31908E-21   2.01735E-08   4.16903E-19
    12    717.73       5.24869E-23   4.00066E-18   3.60043E-13   1.09608E-33   1.74065E-22    16.766       4.43449E-27   4.98986E-15   2.32494E-20   2.53659E-24   1.18117E-30   4.10203E-06   5.37323E-29   2.99891E-09   2.43903E-31   2.08311E-26
                       4.24894E-19   2.34699E-21   6.55359E-08   4.21479E-19
    13    730.00       5.25575E-23   4.01860E-18   3.66419E-13   1.09622E-33   1.74384E-22    18.274       4.43685E-27   5.02959E-15   2.32968E-20   2.53914E-24   1.18145E-30   4.86309E-06   5.37529E-29   3.35745E-09   2.44009E-31   2.08483E-26
                       4.26765E-19   2.35215E-21   7.67182E-08   4.22337E-19
     1    789.81       5.29090E-23   4.11503E-18   4.04110E-13   1.09699E-33   1.76157E-22    27.589       4.44877E-27   5.24006E-15   2.35430E-20   2.55202E-24   1.18298E-30   1.56725E-05   5.38553E-29   9.08399E-09   2.44587E-31   2.09352E-26
                       4.36976E-19   2.38056E-21   2.92663E-07   4.26989E-19
     2    849.62       5.32637E-23   4.21432E-18   4.46876E-13   1.09776E-33   1.77952E-22    39.774       4.46074E-27   5.46616E-15   2.37925E-20   2.56498E-24   1.18451E-30   4.90416E-05   5.39580E-29   3.14899E-08   2.45167E-31   2.10227E-26
                       4.47483E-19   2.40940E-21   1.10047E-06   4.31706E-19
     3    909.43       5.36217E-23   4.31657E-18   4.96023E-13   1.09853E-33   1.79770E-22    55.114       4.47274E-27   5.71377E-15   2.40453E-20   2.57802E-24   1.18605E-30   1.43699E-04   5.40609E-29   1.19777E-07   2.45749E-31   2.11106E-26
                       4.58296E-19   2.43867E-21   3.88603E-06   4.36488E-19
     4    969.24       5.39830E-23   4.42188E-18   5.58688E-13   1.09930E-33   1.81613E-22    73.807       4.48478E-27   5.99780E-15   2.43016E-20   2.59114E-24   1.18758E-30   3.89520E-04   5.41642E-29   4.52095E-07   2.46333E-31   2.11990E-26
                       4.69427E-19   2.46839E-21   1.27100E-05   4.41338E-19
     5    1029.1       5.43476E-23   4.53035E-18   6.78945E-13   1.10007E-33   1.83479E-22    95.957       4.49686E-27   6.35915E-15   2.45614E-20   2.60434E-24   1.18912E-30   9.76721E-04   5.42677E-29   1.62260E-06   2.46919E-31   2.12880E-26
                       4.80885E-19   2.49856E-21   3.84974E-05   4.46256E-19
     6    1088.9       5.47156E-23   4.64211E-18   1.08649E-12   1.10084E-33   1.85370E-22    121.58       4.50898E-27   6.91275E-15   2.48247E-20   2.61763E-24   1.19066E-30   2.27461E-03   5.43715E-29   5.44920E-06   2.47506E-31   2.13775E-26
                       4.92683E-19   2.52919E-21   1.08295E-04   4.51244E-19
     7    1148.7       5.50871E-23   4.75725E-18   3.17421E-12   1.10161E-33   1.87286E-22    150.60       4.52115E-27   7.98319E-15   2.50916E-20   2.63099E-24   1.19221E-30   4.94645E-03   5.44756E-29   1.71048E-05   2.48096E-31   2.14675E-26
                       5.04832E-19   2.56028E-21   2.85269E-04   4.56302E-19
     8    1208.5       5.54620E-23   4.87590E-18   1.56027E-11   1.10239E-33   1.89228E-22    182.88       4.53335E-27   1.04815E-14   2.53622E-20   2.64444E-24   1.19375E-30   1.01032E-02   5.45800E-29   5.01921E-05   2.48687E-31   2.15581E-26
                       5.17346E-19   2.59186E-21   7.05687E-04   4.61433E-19
     9    1268.3       5.58405E-23   4.99818E-18   8.96527E-11   1.10316E-33   1.91195E-22    218.24       4.54559E-27   1.69355E-14   2.56365E-20   2.65797E-24   1.19530E-30   1.94922E-02   5.46847E-29   1.38529E-04   2.49281E-31   2.16491E-26
                       5.30235E-19   2.62392E-21   1.65396E-03   4.66637E-19
    10    1328.1       5.62225E-23   5.12424E-18   4.98453E-10   1.10393E-33   1.93188E-22    256.44       4.55787E-27   3.42530E-14   2.59146E-20   2.67159E-24   1.19685E-30   3.57114E-02   5.47897E-29   3.59943E-04   2.49876E-31   2.17408E-26
                       5.43514E-19   2.65647E-21   3.67860E-03   4.71916E-19
    11    1387.9       5.66082E-23   5.25408E-18   2.53545E-09   1.10471E-33   1.95208E-22    297.22       4.57019E-27   8.08574E-14   2.61966E-20   2.68529E-24   1.19841E-30   6.24313E-02   5.48950E-29   8.88427E-04   2.50473E-31   2.18329E-26
                       5.57198E-19   2.68953E-21   7.83448E-03   4.77273E-19
    12    1447.7       5.69975E-23   5.38716E-18   1.16815E-08   1.10549E-33   1.97255E-22    340.31       4.58255E-27   2.03705E-13   2.64825E-20   2.69908E-24   1.19996E-30   0.10461       5.50006E-29   2.07675E-03   2.51072E-31   2.19256E-26
                       5.71299E-19   2.72310E-21   1.59827E-02   4.82717E-19
    13    1460.0       5.70766E-23   5.41404E-18   1.45667E-08   1.10563E-33   1.97628E-22    349.32       4.58502E-27   2.32084E-13   2.65384E-20   2.70184E-24   1.20025E-30   0.11482       5.50218E-29   2.38665E-03   2.51183E-31   2.19441E-26
                       5.74006E-19   2.72939E-21   1.79472E-02   4.83728E-19
     1    1519.8       5.74704E-23   5.55254E-18   6.06273E-08   1.10641E-33   1.99707E-22    394.84       4.59743E-27   5.92058E-13   2.68291E-20   2.71573E-24   1.20181E-30   0.18399       5.51278E-29   5.32815E-03   2.51785E-31   2.20375E-26
                       5.88623E-19   2.76358E-21   3.46968E-02   4.89333E-19
     2    1579.6       5.78680E-23   5.73387E-18   2.29825E-07   1.10718E-33   2.01815E-22    442.07       4.60988E-27   1.47104E-12   2.71239E-20   2.72971E-24   1.20338E-30   0.28481       5.52340E-29   1.12934E-02   2.52388E-31   2.21314E-26
                       6.03689E-19   2.79831E-21   6.37012E-02   4.95374E-19
     3    1639.4       5.82694E-23   6.21535E-18   7.99793E-07   1.10796E-33   2.03951E-22    490.71       4.62237E-27   3.52563E-12   2.74230E-20   2.74377E-24   1.20494E-30   0.42728       5.53405E-29   2.26119E-02   2.52993E-31   2.22259E-26
                       6.19183E-19   2.83358E-21   0.11171       5.03111E-19
     4    1699.2       5.86747E-23   9.06778E-18   2.57757E-06   1.10874E-33   2.06116E-22    540.49       4.63490E-27   8.12960E-12   2.77268E-20   2.75792E-24   1.20651E-30   0.62297       5.54473E-29   4.29803E-02   2.53601E-31   2.23209E-26
                       6.35028E-19   2.86940E-21   0.18797       5.18129E-19
     5    1759.1       5.90839E-23   3.12905E-17   7.71651E-06   1.10952E-33   2.08310E-22    591.12       4.64748E-27   1.80415E-11   2.80369E-20   2.77216E-24   1.20808E-30   0.88495       5.55544E-29   7.79282E-02   2.54210E-31   2.24166E-26
                       6.54210E-19   2.90578E-21   0.30478       5.63926E-19
     6    1818.9       5.94971E-23   2.13898E-16   2.17111E-05   1.11030E-33   2.10534E-22    642.36       4.66009E-27   3.85926E-11   2.83586E-20   2.78648E-24   1.20965E-30    1.2276       5.56618E-29   0.13538       2.54821E-31   2.25128E-26
                       6.98402E-19   2.94274E-21   0.47784       7.35234E-19
     7    1878.7       5.99143E-23   1.66735E-15   5.71784E-05   1.11108E-33   2.12789E-22    693.92       4.67275E-27   7.97344E-11   2.87117E-20   2.80090E-24   1.21122E-30    1.6663       5.57696E-29   0.22622       2.55435E-31   2.26096E-26
                       9.25135E-19   2.98029E-21   0.72666       1.41591E-18
     8    1938.5       6.03360E-23   1.21856E-14   1.43417E-04   1.11186E-33   2.15075E-22    745.56       4.68544E-27   1.59432E-10   2.91634E-20   2.81541E-24   1.21280E-30    2.2171       5.58776E-29   0.36494       2.56050E-31   2.27069E-26
                       2.54617E-18   3.01835E-21    1.0748       4.10575E-18
     9    1998.3       6.07647E-23   8.03483E-14   3.38983E-04   1.11265E-33   2.17392E-22    797.11       4.69818E-27   3.09121E-10   2.99464E-20   2.83000E-24   1.21438E-30    2.8966       5.59859E-29   0.57010       2.56667E-31   2.28049E-26
                       1.50321E-17   3.05639E-21    1.5498       1.45620E-17
    10    2058.1       6.12207E-23   4.76784E-13   7.52586E-04   1.11343E-33   2.19741E-22    848.43       4.71096E-27   5.82242E-10   3.18461E-20   2.84469E-24   1.21596E-30    3.7212       5.60946E-29   0.86483       2.57287E-31   2.29035E-26
                       1.10521E-16   3.09485E-21    2.1836       5.33266E-17
    11    2117.9       6.18693E-23   2.55985E-12   1.57519E-03   1.11421E-33   2.22123E-22    899.39       4.72379E-27   1.06721E-09   3.74358E-20   2.85947E-24   1.21755E-30    4.7071       5.62035E-29    1.2772       2.57908E-31   2.30026E-26
                       7.87508E-16   3.16472E-21    3.0118       1.88574E-16
    12    2177.7       6.40093E-23   1.25125E-11   3.12769E-03   1.11500E-33   2.24529E-22    949.89       4.73665E-27   1.90666E-09   5.49865E-20   2.87434E-24   1.21913E-30    5.8698       5.63128E-29    1.8402       2.58532E-31   2.31024E-26
                       5.13672E-15   3.56393E-21    4.0735       6.31448E-16
    13    2190.0       6.46835E-23   1.54139E-11   3.51899E-03   1.11515E-33   2.24962E-22    960.16       4.73923E-27   2.09922E-09   5.77501E-20   2.87736E-24   1.21943E-30    6.1257       5.63348E-29    1.9709       2.58647E-31   2.31223E-26
                       6.77706E-15   3.69237E-21    4.3147       6.88602E-16
     1    2249.8       8.30678E-23   6.93618E-11   6.62480E-03   1.11593E-33   2.27310E-22    1010.1       4.75215E-27   3.65222E-09   1.20558E-19   2.89235E-24   1.22102E-30    7.5200       5.64444E-29    2.7656       2.59273E-31   2.32228E-26
                       3.92880E-14   9.28455E-21    5.7135       2.22156E-15
     2    2309.6       2.21959E-22   2.86170E-10   1.19476E-02   1.11672E-33   2.30315E-22    1059.2       4.76511E-27   6.21066E-09   3.22205E-19   2.90743E-24   1.22261E-30    9.1212       5.65544E-29    3.8017       2.59901E-31   2.33239E-26
                       2.10060E-13   7.26222E-20    7.4423       6.73170E-15
     3    2369.4       1.25813E-21   1.09097E-09   2.07243E-02   1.11750E-33   2.43904E-22    1107.5       4.77811E-27   1.03367E-08   9.57839E-19   2.92259E-24   1.22421E-30    10.941       5.66646E-29    5.1276       2.60531E-31   2.34256E-26
                       1.03210E-12   7.85913E-19    9.5482       1.92114E-14
     4    2429.2       8.72872E-21   3.86913E-09   3.46996E-02   1.11829E-33   3.89845E-22    1154.9       4.79115E-27   1.68588E-08   2.88857E-18   2.93773E-24   1.22580E-30    12.988       5.67752E-29    6.7956       2.61163E-31   2.35280E-26
                       4.67208E-12   8.07867E-18    12.079       5.19261E-14
     5    2489.1       5.80889E-20   1.28268E-08   5.62565E-02   1.11908E-33   2.23743E-21    1201.2       4.80424E-27   2.69749E-08   8.49903E-18   2.95311E-24   1.22741E-30    15.270       5.68861E-29    8.8614       2.61797E-31   2.36310E-26
                       1.95694E-11   7.36773E-17    15.082       1.33660E-13
     6    2548.9       3.51558E-19   3.99787E-08   8.85551E-02   1.11987E-33   2.64416E-20    1246.6       4.81737E-27   4.23874E-08   2.40971E-17   2.97032E-24   1.22901E-30    17.794       5.69973E-29    11.383       2.62434E-31   2.37346E-26
                       7.62050E-11   5.93649E-16    18.605       3.29014E-13
     7    2608.7       1.92465E-18   1.17625E-07   0.13567       1.12066E-33   3.25571E-19    1290.6       4.83055E-27   6.54751E-08   6.56471E-17   3.00534E-24   1.23061E-30    20.562       5.71088E-29    14.419       2.63072E-31   2.38388E-26
                       2.77128E-10   4.25138E-15    22.694       7.76982E-13
     8    2668.5       9.58196E-18   3.27891E-07   0.20275       1.12145E-33   3.58422E-18    1333.4       4.84376E-27   9.95100E-08   1.71911E-16   3.22381E-24   1.23222E-30    23.577       5.72207E-29    18.030       2.63712E-31   2.39440E-26
                       9.45300E-10   2.72674E-14    27.393       1.76423E-12
     9    2728.3       4.36491E-17   8.69666E-07   0.29611       1.12224E-33   3.46514E-17    1375.1       4.85703E-27   1.48927E-07   4.33388E-16   5.38487E-24   1.23383E-30    26.837       5.73328E-29    22.274       2.64355E-31   2.40535E-26
                       3.03627E-09   1.57792E-13    32.742       3.86069E-12
    10    2788.1       1.83065E-16   2.19875E-06   0.42338       1.12303E-33   2.95250E-16    1415.7       4.87033E-27   2.19649E-07   1.05451E-15   2.80446E-23   1.23545E-30    30.342       5.74454E-29    27.211       2.65000E-31   2.42099E-26
                       9.21665E-09   8.29072E-13    38.778       8.17906E-12
    11    2847.9       7.11149E-16   5.32430E-06   0.59354       1.12382E-33   2.23122E-15    1455.3       4.88368E-27   3.19486E-07   2.48199E-15   2.71648E-22   1.23706E-30    34.087       5.75588E-29    32.894       2.65647E-31   2.50456E-26
                       2.65377E-08   3.98161E-12    45.537       1.68137E-11
    12    2907.7       2.57314E-15   1.23755E-05   0.81705       1.12462E-33   1.50638E-14    1493.9       4.89703E-27   4.58605E-07   5.66098E-15   2.78309E-21   1.23868E-30    38.066       5.76774E-29    39.377       2.66296E-31   3.42644E-26
                       7.27186E-08   1.75796E-11    53.046       3.35914E-11
    13    2920.0       3.10455E-15   1.41939E-05   0.86839       1.12476E-33   1.99038E-14    1502.1       4.89973E-27   4.89501E-07   6.33128E-15   3.60354E-21   1.23898E-30    38.907       5.77044E-29    40.788       2.66416E-31   4.97543E-26
                       8.53097E-08   2.16774E-11    54.664       3.68440E-11
     1    2979.8       1.04960E-14   3.15167E-05    1.1718       1.12556E-33   1.20132E-13    1539.3       4.91293E-27   6.92590E-07   1.40102E-14   3.49370E-20   1.24061E-30    43.159       5.79077E-29    48.298       2.67067E-31   2.85370E-25
                       2.22235E-07   8.85685E-11    63.111       7.16605E-11
     2    3039.6       3.33473E-14   6.77434E-05    1.5567       1.12635E-33   6.55129E-13    1575.4       4.92681E-27   9.68310E-07   3.01716E-14   3.01517E-19   1.24223E-30    47.628       5.88085E-29    56.709       2.67721E-31   2.80040E-24
                       5.53981E-07   3.34914E-10    72.357       1.36010E-10
     3    3099.4       9.99737E-14   1.40548E-04    2.0381       1.12715E-33   3.24901E-12    1610.5       4.94830E-27   1.33848E-06   6.33622E-14   2.33355E-18   1.24386E-30    52.305       6.59218E-29    66.058       2.68377E-31   3.01574E-23
                       1.32537E-06   1.17884E-09    82.416       2.52291E-10
     4    3159.2       2.83955E-13   2.82445E-04    2.6325       1.12794E-33   1.47385E-11    1644.5       5.05973E-27   1.83019E-06   1.29815E-13   1.63237E-17   1.24549E-30    57.177       1.27236E-28    76.377       2.69035E-31   3.10929E-22
                       3.05111E-06   3.88710E-09    93.297       4.57560E-10
     5    3219.1       7.66982E-13   5.52975E-04    3.3572       1.12874E-33   6.15879E-11    1677.2       6.26449E-27   2.47673E-06   2.59656E-13   1.03934E-16   1.24712E-30    62.235       6.52737E-28    87.692       2.69696E-31   2.94635E-21
                       6.78120E-06   1.20657E-08    105.00       8.11943E-10
     6    3278.9       1.97688E-12   1.04530E-03    4.2308       1.12954E-33   2.38203E-10    1708.7       2.06942E-26   3.31863E-06   5.07477E-13   6.05939E-16   1.24876E-30    67.464       5.18902E-27    100.02       2.70358E-31   2.53522E-20
                       1.45306E-05   3.53663E-08    117.54       1.41097E-09
     7    3338.7       4.87745E-12   1.90276E-03    5.2726       1.13034E-33   8.56692E-10    1739.1       1.96762E-25   4.40478E-06   9.70003E-13   3.25189E-15   1.25039E-30    72.853       4.23911E-26    113.38       2.71023E-31   1.97654E-19
                       3.02941E-05   9.84163E-08    130.89       2.40342E-09
     8    3398.5       1.15519E-11   3.33872E-03    6.5026       1.13114E-33   2.88216E-09    1768.4       2.34601E-24   5.79370E-06   1.81494E-12   1.61429E-14   1.25203E-30    78.387       3.21215E-25    127.77       2.71690E-31   1.39832E-18
                       6.10251E-05   2.60678E-07    145.05       4.01667E-09
     9    3458.3       2.63325E-11   5.66751E-03    7.9411       1.13194E-33   9.09379E-09    1796.6       2.65146E-23   7.55480E-06   3.32715E-12   7.44406E-14   1.25368E-30    84.054       2.21938E-24    143.20       2.72359E-31   9.00648E-18
                       1.18183E-04   6.58997E-07    160.01       6.59199E-09
    10    3518.1       5.79074E-11   9.33501E-03    9.6086       1.13274E-33   2.70562E-08    1824.5       2.71140E-22   9.76981E-06   5.98100E-12   3.20156E-13   1.25532E-30    89.839       1.39914E-23    159.66       2.73028E-31   5.30057E-17
                       2.19984E-04   1.59730E-06    175.74       1.06328E-08
    11    3577.9       1.23118E-10   1.49576E-02    11.526       1.13354E-33   7.62388E-08    1851.7       2.50074E-21   1.25341E-05   1.05517E-11   1.28914E-12   1.25697E-30    95.729       8.08274E-23    177.15       2.73671E-31   2.86069E-16
                       3.94849E-04   3.71288E-06    192.23       1.68700E-08
    12    3637.7       2.53580E-10   2.33675E-02    13.712       1.13434E-33   2.03520E-07    1878.2       2.08817E-20   1.59583E-05   1.82830E-11   4.87622E-12   1.25862E-30    101.71       4.30011E-22    195.64       2.74377E-31   1.42191E-15
                       6.85447E-04   8.31314E-06    209.44       2.63477E-08
    13    3650.0       2.85665E-10   2.53325E-02    14.187       1.13449E-33   2.38804E-07    1883.5       2.67221E-20   1.67005E-05   1.99589E-11   5.86638E-12   1.25893E-30    102.95       5.70618E-22    199.54       2.74639E-31   2.01734E-15
                       7.55091E-04   9.51432E-06    213.06       2.83075E-08
     1    3709.8       5.69397E-10   3.85337E-02    16.724       1.13529E-33   6.05189E-07    1909.0       2.06803E-19   2.10824E-05   3.39252E-11   2.09667E-11   1.26056E-30    109.02       2.79052E-21    219.21       2.77650E-31   8.82951E-15
                       1.26620E-03   2.04692E-05    231.11       4.34850E-08
     2    3769.6       1.10325E-09   5.73712E-02    19.572       1.13610E-33   1.46594E-06    1933.7       1.44775E-18   2.64271E-05   5.67072E-11   7.06370E-11   1.26205E-30    115.16       1.26443E-20    239.82       3.03826E-31   3.64421E-14
                       2.06445E-03   4.24453E-05    249.84       6.58497E-08
     3    3829.4       2.08128E-09   8.37399E-02    22.749       1.13690E-33   3.38730E-06    1957.5       9.24660E-18   3.29038E-05   9.32882E-11   2.25175E-10   1.26384E-30    121.34       5.34731E-20    261.36       6.12799E-31   1.41605E-13
                       3.28009E-03   8.58159E-05    269.19       9.83601E-08
     4    3889.2       3.82851E-09   0.12000        26.272       1.13770E-33   7.58580E-06    1980.4       5.42386E-17   4.07051E-05   1.51136E-10   6.81714E-10   1.27043E-30    127.56       2.12129E-19    283.78       4.56743E-30   5.18374E-13
                       5.08891E-03   1.68112E-04    289.14       1.45010E-07
     5    3949.1       6.87665E-09   0.16903        30.155       1.13851E-33   1.62858E-05    2002.4       2.93782E-16   5.00478E-05   2.41311E-10   1.96662E-09   1.35245E-30    133.80       7.92568E-19    307.04       5.91160E-29   1.78439E-12
                       7.72329E-03   3.17566E-04    309.64       2.11121E-07
     6    4008.9       1.20763E-08   0.23433        34.411       1.13932E-33   3.34247E-05    2023.1       1.47631E-15   6.11743E-05   3.79942E-10   5.41970E-09   2.65565E-30    140.06       2.79855E-18    331.11       7.94335E-28   5.77773E-12
                       1.14847E-02   5.77146E-04    330.67       3.03710E-07
     7    4068.7       2.07597E-08   0.32005        39.053       1.14012E-33   6.55465E-05    2042.9       6.91229E-15   7.43538E-05   5.90239E-10   1.43070E-08   2.33061E-29    146.31       9.36842E-18    355.93       9.94044E-27   1.76524E-11
                       1.67574E-02   1.01255E-03    352.17       4.31912E-07
     8    4128.5       3.49723E-08   0.43104        44.091       1.14093E-33   1.23408E-04    2061.9       3.02686E-14   8.98823E-05   9.05178E-10   3.62708E-08   3.62849E-28    152.56       2.98204E-17    381.47       1.13806E-25   5.11636E-11
                       2.40229E-02   1.72064E-03    374.12       6.07507E-07
     9    4188.3       5.77953E-08   0.57296        49.532       1.14174E-33   2.23948E-04    2080.1       1.24389E-13   1.08083E-04   1.37106E-09   8.84633E-08   5.63196E-27    158.79       9.05027E-17    407.66       1.19059E-24   1.40769E-10
                       3.38761E-02   2.83995E-03    396.46       8.45517E-07
    10    4248.1       9.37878E-08   0.75228        55.383       1.14255E-33   3.92979E-04    2097.6       4.81312E-13   1.29311E-04   2.05215E-09   2.07999E-07   7.88318E-26    164.99       2.62555E-16    434.47       1.14047E-23   3.68062E-10
                       4.70407E-02   4.56402E-03    419.17       1.16492E-06
    11    4307.9       1.49581E-07   0.97635        61.649       1.14336E-33   6.68728E-04    2114.5       1.75882E-12   1.53966E-04   3.03665E-09   4.72619E-07   9.84911E-25    171.13       7.29848E-16    461.84       1.00311E-22   9.16710E-10
                       6.43858E-02   7.15703E-03    442.19       1.58945E-06
    12    4367.7       2.34666E-07    1.2534        68.331       1.14417E-33   1.10630E-03    2130.7       6.08626E-12   1.82468E-04   4.44427E-09   1.03905E-06   1.10197E-23    177.23       1.94839E-15    489.72       8.12501E-22   2.18067E-09
                       8.69421E-02   1.09722E-02    465.50       2.14855E-06
    13    4380.0       2.54156E-07    1.3151        69.741       1.14431E-33   1.21129E-03    2133.6       7.26745E-12   1.88548E-04   4.74869E-09   1.18196E-06   1.44221E-23    178.52       2.29178E-15    495.51       1.35391E-21   2.54724E-09
                       9.20558E-02   1.18676E-02    470.32       2.26490E-06
     1    4439.8       3.91669E-07    1.6679        76.927       1.14503E-33   1.94528E-03    2149.0       2.39220E-11   2.22253E-04   6.86613E-09   2.51043E-06   1.49270E-22    184.58       5.87520E-15    523.94       9.21343E-21   5.76609E-09
                       0.12247       1.77605E-02    493.92       3.03034E-06
     2    4499.6       5.94645E-07    2.0950        84.528       1.14598E-33   3.05005E-03    2163.5       7.47737E-11   2.60843E-04   9.82714E-09   5.17846E-06   1.37710E-21    190.54       1.45087E-14    552.76       6.04603E-20   1.25560E-08
                       0.16101       2.60716E-02    517.71       4.01983E-06
     3    4559.4       8.90067E-07    2.6076        92.543       1.15083E-33   4.67731E-03    2177.1       2.22628E-10   3.04920E-04   1.39276E-08   1.03835E-05   1.14493E-20    196.42       3.45960E-14    581.93       3.76744E-19   2.63667E-08
                       0.20932       3.75909E-02    541.66       5.28864E-06
     4    4619.2       1.31432E-06    3.2177        100.96       1.22787E-33   7.02653E-03    2190.0       6.33360E-10   3.55049E-04   1.95530E-08   2.02339E-05   8.64620E-20    202.23       7.98178E-14    611.39       2.21032E-18   5.35137E-08
                       0.26927       5.33005E-02    565.73       6.90292E-06
     5    4679.1       1.91585E-06    3.9382        109.79       2.65888E-33   1.03553E-02    2202.3       1.72624E-09   4.11821E-04   2.72006E-08   3.85543E-05   5.96757E-19    207.95       1.78500E-13    641.10       1.21715E-17   1.05187E-07
                       0.34296       7.44032E-02    589.88       8.94142E-06
     6    4738.9       2.75840E-06    4.7827        119.00       2.91412E-32   1.49908E-02    2213.9       4.51605E-09   4.75865E-04   3.75068E-08   7.17239E-05   3.78455E-18    213.57       3.87577E-13    671.02       6.28876E-17   2.00613E-07
                       0.43271       0.10235        614.09       1.14971E-05
     7    4798.7       3.92488E-06    5.7658        128.60       5.45103E-31   2.13419E-02    2224.9       1.13699E-08   5.47803E-04   5.12790E-08   1.30058E-04   2.21554E-17    219.21       8.18293E-13    701.08       3.05192E-16   3.71893E-07
                       0.54110       0.13888        638.32       1.46789E-05
     8    4858.5       5.52196E-06    6.9023        138.57       1.00381E-29   2.99123E-02    2235.3       2.76078E-08   6.28166E-04   6.95330E-08   2.31403E-04   1.20220E-16    224.76       1.68227E-12    731.25       1.39359E-15   6.71187E-07
                       0.67095       0.18603        662.53       1.86138E-05
     9    4918.3       7.68541E-06    8.2080        148.89       1.66623E-28   4.13141E-02    2245.3       6.47360E-08   7.17668E-04   9.35370E-08   4.03979E-04   6.06994E-16    230.21       3.37192E-12    761.49       5.99843E-15   1.18116E-06
                       0.82529       0.24619        686.71       2.34488E-05
    10    4978.1       1.05863E-05    9.6990        159.56       2.47251E-27   5.62815E-02    2254.8       1.46892E-07   8.17042E-04   1.24862E-07   6.88044E-04   2.86159E-15    235.57       6.59753E-12    791.74       2.43834E-14   2.03003E-06
                        1.0074       0.32210        710.81       2.93529E-05
    11    5037.9       1.44382E-05    11.392        170.57       3.28987E-26   7.56846E-02    2264.3       3.23155E-07   9.27048E-04   1.65441E-07   1.14182E-03   1.26370E-14    240.81       1.26154E-11    821.98       9.38121E-14   3.41247E-06
                        1.2209       0.41689        734.81       3.65195E-05
    12    5097.7       1.95051E-05    13.303        181.89       3.94216E-25   0.10054        2273.5       6.89843E-07   1.04843E-03   2.17633E-07   1.84395E-03   5.24413E-14    245.89       2.35994E-11    852.16       3.42302E-13   5.61798E-06
                        1.4694       0.53411        758.69       4.51683E-05
    13    5110.0       2.06203E-05    13.715        184.24       6.99844E-25   0.10617        2275.3       7.82030E-07   1.07376E-03   2.28810E-07   2.00530E-03   6.37582E-14    246.93       2.63094E-11    858.32       4.30574E-13   6.16171E-06
                        1.5237       0.56034        763.60       4.69608E-05
     1    5169.8       2.75626E-05    15.912        195.91       6.58634E-24   0.13915        2284.2       1.61763E-06   1.20951E-03   2.98559E-07   3.15091E-03   2.50469E-13    251.89       4.80918E-11    888.35       1.47473E-12   9.91407E-06
                        1.8196       0.70976        787.30       5.76972E-05
     2    5229.6       3.65218E-05    18.365        207.87       6.12486E-23   0.18041        2292.8       3.25757E-06   1.35812E-03   3.86959E-07   4.84109E-03   9.26182E-13    256.77       8.61574E-11    918.24       4.82101E-12   1.56583E-05
                        2.1595       0.89092        810.82       7.05005E-05
     3    5289.4       4.79892E-05    21.091        220.09       5.35900E-22   0.23153        2301.1       6.39134E-06   1.52037E-03   4.98278E-07   7.28639E-03   3.23711E-12    261.56       1.51423E-10    947.97       1.50542E-11   2.42994E-05
                        2.5478        1.1088        834.15       8.56891E-05
     4    5349.2       6.25509E-05    24.106        232.55       4.33770E-21   0.29429        2309.0       1.22142E-05   1.69707E-03   6.37586E-07   1.07607E-02   1.07298E-11    266.24       2.61309E-10    977.49       4.49396E-11   3.70834E-05
                        2.9889        1.3687        857.26       1.03617E-04
     5    5409.1       8.09093E-05    27.428        245.24       3.23475E-20   0.37065        2316.7       2.28570E-05   1.88927E-03   8.10873E-07   1.56149E-02   3.38310E-11    270.81       4.43145E-10    1006.8       1.28535E-10   5.56997E-05
                        3.4875        1.6766        880.14       1.24674E-04
     6    5468.9       1.03892E-04    31.071        258.13       2.22418E-19   0.46281        2324.1       4.18516E-05   2.09811E-03   1.02517E-06   2.22920E-02   1.01770E-10    275.26       7.39102E-10    1035.8       3.52978E-10   8.24038E-05
                        4.0482        2.0386        902.77       1.49292E-04
     7    5528.7       1.32459E-04    35.052        271.21       1.41368E-18   0.57313        2331.2       7.48505E-05   2.32440E-03   1.28868E-06   3.13439E-02   2.92754E-10    279.60       1.21322E-09    1064.6       9.31507E-10   1.20165E-04
                        4.6760        2.4615        925.14       1.77939E-04
     8    5588.5       1.67720E-04    39.386        284.46       8.33040E-18   0.70423        2338.1       1.31220E-04   2.56896E-03   1.61095E-06   4.34490E-02   8.06966E-10    283.84       1.96132E-09    1093.0       2.36638E-09   1.72840E-04
                        5.3755        2.9523        947.22       2.11128E-04
     9    5648.3       2.10972E-04    44.085        297.86       4.56460E-17   0.85889        2344.6       2.26576E-04   2.83257E-03   2.00297E-06   5.94318E-02   2.13683E-09    287.97       3.12467E-09    1121.1       5.80218E-09   2.45419E-04
                        6.1518        3.5185        969.01       2.49414E-04
    10    5708.1       2.63709E-04    49.165        311.40       2.33249E-16    1.0401        2350.9       3.82635E-04   3.11605E-03   2.47738E-06   8.02831E-02   5.44517E-09    292.00       4.90873E-09    1148.9       1.37418E-08   3.44315E-04
                        7.0096        4.1679        990.50       2.93398E-04
    11    5767.9       3.27659E-04    54.636        325.04       1.11461E-15    1.2511        2356.9       6.30817E-04   3.42019E-03   3.04865E-06   0.10718       1.33684E-08    295.92       7.60840E-09    1176.3       3.14208E-08   4.77591E-04
                        7.9537        4.9087        1011.7       3.43738E-04
    12    5827.7       4.04782E-04    60.510        338.78       4.99437E-15    1.4953        2362.7       1.01383E-03   3.74581E-03   3.73321E-06   0.14151       3.17106E-08    299.74       1.16417E-08    1203.3       6.97066E-08   6.55283E-04
                        8.9891        5.7492        1032.5       4.01133E-04
    13    5840.0       4.21309E-04    61.750        341.61       6.37736E-15    1.5486        2363.8       1.10120E-03   3.81359E-03   3.87831E-06   0.14921       3.64365E-08    300.53       1.25738E-08    1208.8       8.01213E-08   6.96058E-04
                        9.2103        5.9311        1036.8       4.12952E-04
     1    5899.8       5.17218E-04    68.124        355.45       2.65517E-14    1.8373        2369.2       1.72355E-03   4.16605E-03   4.72251E-06   0.19459       8.34398E-08    304.22       1.89700E-08    1235.3       1.71572E-07   9.43332E-04
                        10.362        6.9030        1057.2       4.79746E-04
     2    5959.6       6.31616E-04    74.923        369.34       1.04576E-13    2.1672        2374.4       2.63929E-03   4.54182E-03   5.72398E-06   0.25130       1.84723E-07    307.81       2.82815E-08    1261.4       3.56448E-07   1.26576E-03
                        11.614        7.9938        1077.3       5.55278E-04
     3    6019.4       7.67193E-04    82.154        383.27       3.89588E-13    2.5421        2379.3       3.96173E-03   4.94171E-03   6.90677E-06   0.32153       3.97143E-07    311.30       4.16862E-08    1287.1       7.18001E-07   1.68217E-03
                        12.973        9.2124        1097.1       6.40403E-04
     4    6079.2       9.26722E-04    89.824        397.23       1.37493E-12    2.9661        2384.1       5.83841E-03   5.36646E-03   8.29778E-06   0.40778       8.30103E-07    314.69       6.07777E-08    1312.4       1.41904E-06   2.21501E-03
                        14.441        10.568        1116.5       7.36011E-04
     5    6139.1       1.11350E-03    97.939        411.19       4.60657E-12    3.4432        2388.6       8.45884E-03   5.81683E-03   9.92688E-06   0.51286       1.68561E-06    317.99       8.76952E-08    1337.2       2.72829E-06   2.89081E-03
                        16.023        12.069        1135.5       8.42980E-04
     6    6198.9       1.33119E-03    106.50        425.14       1.46858E-11    3.9776        2392.9       1.20630E-02   6.29351E-03   1.18272E-05   0.63989       3.33876E-06    321.19       1.25272E-07    1361.6       5.08960E-06   3.74069E-03
                        17.722        13.725        1154.2       9.62323E-04
     7    6258.7       1.58382E-03    115.52        439.07       4.46451E-11    4.5735        2397.0       1.69511E-02   6.79717E-03   1.40352E-05   0.79238       6.45848E-06    324.30       1.77231E-07    1385.5       9.21019E-06   4.80086E-03
                        19.543        15.545        1172.5       1.09514E-03
     8    6318.5       1.87578E-03    124.99        452.97       1.29706E-10    5.2351        2401.0       2.34935E-02   7.32847E-03   1.65911E-05   0.97415       1.21728E-05    327.31       2.48420E-07    1408.9       1.61660E-05   6.11306E-03
                        21.489        17.537        1190.4       1.24260E-03
     9    6378.3       2.21228E-03    134.91        466.81       3.60924E-10    5.9667        2404.8       3.21427E-02   7.88801E-03   1.95386E-05    1.1894       2.23911E-05    330.23       3.45099E-07    1431.9       2.75980E-05   7.72516E-03
                        23.562        19.711        1208.0       1.40581E-03
    10    6438.1       2.59848E-03    145.29        480.59       9.63708E-10    6.7725        2408.5       4.34452E-02   8.47639E-03   2.29258E-05    1.4428       4.05629E-05    333.07       4.75279E-07    1454.4       4.59166E-05   9.69630E-03
                        25.765        22.074        1225.2       1.58597E-03
    11    6497.9       3.03993E-03    156.11        494.29       2.47374E-09    7.6567        2412.0       5.80542E-02   9.09415E-03   2.68046E-05    1.7392       7.17179E-05    335.82       6.49137E-07    1476.5       7.45935E-05   1.20964E-02
                        28.101        24.634        1242.0       1.78432E-03
    12    6557.7       3.54256E-03    167.39        507.91       6.11480E-09    8.6234        2415.4       7.67433E-02   9.74180E-03   3.12315E-05    2.0840       1.23451E-04    338.48       8.79502E-07    1498.0       1.18555E-04   1.49983E-02
                        30.571        27.400        1258.5       2.00214E-03
    13    6570.0       3.64863E-03    169.73        510.70       7.11223E-09    8.8296        2416.1       8.09287E-02   9.87558E-03   3.21613E-05    2.1591       1.35128E-04    339.03       9.30774E-07    1502.4       1.28832E-04   1.56363E-02
                        31.092        27.986        1261.9       2.04684E-03
     1    6629.8       4.23295E-03    181.55        524.19       1.68653E-08    9.9010        2419.3       0.10571       1.05598E-02   3.73241E-05    2.5696       2.25667E-04    341.60       1.24982E-06    1523.4       2.00089E-04   1.92490E-02
                        33.727        31.008        1277.9       2.28947E-03
     2    6689.6       4.89304E-03    193.79        537.57       3.86449E-08    11.064        2422.4       0.13677       1.12748E-02   4.31751E-05    3.0415       3.66751E-04    344.08       1.66582E-06    1543.9       3.04971E-04   2.35549E-02
                        36.501        34.251        1293.6       2.55431E-03
     3    6749.4       5.63616E-03    206.47        550.84       8.56921E-08    12.321        2425.4       0.17536       1.20210E-02   4.97856E-05    3.5815       5.81709E-04    346.48       2.20447E-06    1564.0       4.56757E-04   2.86557E-02
                        39.414        37.721        1308.9       2.84269E-03
     4    6809.2       6.46996E-03    219.57        563.97       1.83935E-07    13.677        2428.3       0.22290       1.27989E-02   5.72317E-05    4.1963       9.02477E-04    348.81       2.89736E-06    1583.6       6.72965E-04   3.46628E-02
                        42.468        41.424        1323.8       3.15437E-03
     5    6869.1       7.40250E-03    233.09        576.96       3.83458E-07    15.135        2431.0       0.28103       1.36085E-02   6.55945E-05    4.8932       1.37197E-03    351.06       3.78310E-06    1602.7       9.76392E-04   4.16977E-02
                        45.662        45.365        1338.4       3.49122E-03
     6    6928.9       8.44221E-03    247.01        589.81       7.75867E-07    16.698        2433.7       0.35158       1.44503E-02   7.49601E-05    5.6796       2.04697E-03    353.24       4.90856E-06    1621.3       1.39629E-03   4.98920E-02
                        48.996        49.549        1352.6       3.85578E-03
     7    6988.7       9.59790E-03    261.32        602.51       1.52544E-06    18.368        2436.2       0.43659       1.53243E-02   8.54193E-05    6.5634       3.00145E-03    355.35       6.33031E-06    1639.5       1.96974E-03   5.93872E-02
                        52.471        53.980        1366.5       4.25110E-03
     8    7048.5       1.08787E-02    276.01        615.04       2.93324E-06    20.150        2438.7       0.53834       1.62308E-02   9.70685E-05    7.5525       4.33040E-03    357.39       8.11634E-06    1657.3       2.74324E-03   7.03350E-02
                        56.085        58.661        1380.0       4.67702E-03
     9    7108.3       1.22943E-02    291.08        627.41       5.47985E-06    22.044        2441.0       0.65935       1.71699E-02   1.10009E-04    8.6553       6.15421E-03    359.36       1.03501E-05    1674.6       3.77438E-03   8.28973E-02
                        59.838        63.596        1393.2       5.13584E-03
    10    7168.1       1.38545E-02    306.50        639.60       9.93056E-06    24.054        2443.3       0.80238       1.81415E-02   1.24348E-04    9.8803       8.62353E-03    361.26       1.31296E-05    1691.4       5.13385E-03   9.72457E-02
                        63.729        68.786        1406.1       5.62899E-03
    11    7227.9       1.55697E-02    322.26        651.62       1.74462E-05    26.181        2445.5       0.97047       1.91457E-02   1.40197E-04    11.236       1.19247E-02    363.11       1.65705E-05    1707.9       6.90746E-03   0.11356    
                        67.756        74.234        1418.6       6.15788E-03
    12    7287.7       1.74504E-02    338.37        663.46       2.97936E-05    28.426        2447.5        1.1669       2.01825E-02   1.57674E-04    12.731       1.62856E-02    364.89       2.08086E-05    1723.8       9.19848E-03   0.13204    
                        71.917        79.941        1430.8       6.72291E-03
    13    7300.0       1.78426E-02    341.71        665.89       3.27340E-05    28.898        2447.9        1.2097       2.03954E-02   1.61317E-04    13.050       1.72688E-02    365.26       2.17271E-05    1727.1       9.71240E-03   0.13602    
                        72.785        81.134        1433.3       6.83823E-03
     1    7373.1       2.04247E-02    361.68        679.71       6.12014E-05    31.805        2446.4        1.5007       2.16893E-02   1.85517E-04    15.105       2.48584E-02    366.98       2.85304E-05    1745.5       1.35847E-02   0.16220    
                        78.028        88.450        1447.2       7.59095E-03
     2    7446.2       2.32907E-02    382.08        693.23       1.09950E-04    34.889        2444.5        1.8469       2.30280E-02   2.12571E-04    17.396       3.51766E-02    368.60       3.71743E-05    1763.2       1.87326E-02   0.19222    
                        83.457        96.141        1460.7       8.40267E-03
     3    7482.5       2.47835E-02    392.35        699.89       1.42319E-04    36.480        2443.3        2.0377       2.37003E-02   2.26719E-04    18.611       4.12795E-02    369.39       4.20227E-05    1771.9       2.17445E-02   0.20843    
                        86.220        100.08        1467.3       8.81457E-03
     1    7555.6       2.81081E-02    413.33        712.99       2.43698E-04    39.829        2440.6        2.4802       2.51046E-02   2.58461E-04    21.286       5.71191E-02    370.86       5.41546E-05    1788.7       2.94198E-02   0.24490    
                        91.921        108.33        1480.1       9.71814E-03
     2    7628.7       3.17669E-02    434.66        725.77       4.04791E-04    43.356        2437.1        2.9977       2.65524E-02   2.93689E-04    24.236       7.79192E-02    372.25       6.92810E-05    1805.0       3.93242E-02   0.28616    
                        97.796        116.95        1492.4       1.06864E-02
     3    7665.0       3.36637E-02    445.38        732.08       5.08264E-04    45.167        2435.0        3.2801       2.72777E-02   3.12056E-04    25.790       9.00089E-02    372.92       7.76429E-05    1812.9       4.50278E-02   0.30828    
                        100.78        121.35        1498.5       1.11761E-02
     1    7738.1       3.78569E-02    467.19        744.46       8.12717E-04    48.958        2429.9        3.9260       2.87886E-02   3.52944E-04    29.182       0.12048        374.16       9.83302E-05    1828.3       5.92092E-02   0.35751    
                        106.90        130.51        1510.1       1.22439E-02
     2    7811.2       4.24352E-02    489.28        756.47       1.26847E-03    52.924        2423.1        4.6699       3.03409E-02   3.97985E-04    32.887       0.15934        375.32       1.23650E-04    1843.1       7.70465E-02   0.41256    
                        113.19        140.02        1521.3       1.33815E-02
     3    7847.5       4.47983E-02    500.37        762.45       1.55309E-03    54.952        2419.2        5.0723       3.11169E-02   4.21381E-04    34.827       0.18158        375.88       1.37486E-04    1850.3       8.71755E-02   0.44187    
                        116.36        144.85        1526.8       1.39551E-02
     1    7920.6       4.99867E-02    522.82        774.02       2.34985E-03    59.174        2409.2        5.9813       3.27291E-02   4.73080E-04    39.028       0.23628        376.90       1.71210E-04    1864.4       0.11183       0.50646    
                        122.87        154.87        1537.4       1.51994E-02
     2    7993.7       5.56108E-02    545.49        785.27       3.48575E-03    63.564        2396.4        7.0142       3.43805E-02   5.29624E-04    43.577       0.30428        377.84       2.11852E-04    1877.9       0.14216       0.57787    
                        129.52        165.23        1547.5       1.65178E-02
     3    8030.0       5.85017E-02    556.86        790.98       4.17823E-03    65.800        2389.1        7.5686       3.52041E-02   5.58818E-04    45.947       0.34268        378.29       2.33993E-04    1884.4       0.15917       0.61579    
                        132.87        170.47        1552.5       1.71807E-02
     1    8103.1       6.48097E-02    579.79        801.77       6.03958E-03    70.434        2371.4        8.8071       3.69115E-02   6.23074E-04    51.040       0.43515        379.09       2.87134E-04    1897.1       0.19983       0.69836    
                        139.72        181.29        1562.1       1.86118E-02
     2    8176.2       7.16021E-02    602.86        812.30       8.58757E-03    75.226        2350.1        10.198       3.86552E-02   6.92901E-04    56.513       0.54764        379.80       3.50436E-04    1909.4       0.24886       0.78890    
                        146.68        192.42        1571.3       2.01206E-02
     3    8212.5       7.50809E-02    614.40        817.74       1.01089E-02    77.658        2338.4        10.939       3.95231E-02   7.28813E-04    59.349       0.61040        380.14       3.84674E-04    1915.3       0.27606       0.83689    
                        150.19        198.04        1575.8       2.08774E-02
     1    8285.6       8.26301E-02    637.61        827.84       1.40627E-02    82.676        2311.6        12.578       4.13184E-02   8.07484E-04    65.408       0.75881        380.72       4.65938E-04    1926.8       0.34003       0.94022    
                        157.32        209.59        1584.4       2.25036E-02
     2    8358.7       9.07167E-02    660.90        837.76       1.92924E-02    87.839        2281.2        14.398       4.31468E-02   8.92642E-04    71.871       0.93592        381.20       5.61566E-04    1937.8       0.41587        1.0526    
                        164.55        221.41        1592.6       2.42102E-02
     3    8395.0       9.48496E-02    672.53        842.85       2.23590E-02    90.452        2264.9        15.362       4.40551E-02   9.36415E-04    75.204        1.0337        381.42       6.12938E-04    1943.1       0.45753        1.1121    
                        168.18        227.36        1596.6       2.50640E-02
     1    8468.1       0.10377        695.87        852.28       3.01054E-02    95.821        2229.1        17.476       4.59302E-02   1.03163E-03    82.286        1.2612        381.74       7.33641E-04    1953.4       0.55411        1.2389    
                        175.54        239.55        1604.3       2.68914E-02
     2    8541.2       0.11326        719.21        861.52       4.00559E-02    101.32        2189.9        19.801       4.78350E-02   1.13375E-03    89.789        1.5282        381.96       8.74108E-04    1963.3       0.66687        1.3758    
                        182.98        251.97        1611.7       2.88008E-02
     3    8577.5       0.11810        730.85        866.17       4.57992E-02    104.09        2169.5        21.024       4.87795E-02   1.18571E-03    93.643        1.6742        382.04       9.49083E-04    1968.0       0.72826        1.4482    
                        186.72        258.21        1615.2       2.97539E-02
     1    8650.6       0.12848        754.14        875.04       5.99600E-02    109.77        2125.8        23.686       5.07257E-02   1.29834E-03    101.79        2.0093        382.07       1.12360E-03    1977.2       0.86881        1.6010    
                        194.26        270.95        1622.0       3.17860E-02
     2    8723.7       0.13947        777.38        883.69       7.76956E-02    115.57        2079.5        26.588       5.26979E-02   1.41827E-03    110.37        2.3967        381.97       1.32463E-03    1986.0        1.0307        1.7653    
                        201.86        283.88        1628.3       3.39011E-02
     3    8760.0       0.14505        788.95        887.91       8.77909E-02    118.48        2055.9        28.106       5.36739E-02   1.47941E-03    114.75        2.6066        381.89       1.43129E-03    1990.2        1.1181        1.8520    
                        205.67        290.36        1631.4       3.49544E-02
     1    8833.1       0.15697        812.05        896.20       0.11217        124.43        2006.3        31.388       5.56818E-02   1.61118E-03    123.99        3.0826        381.57       1.67750E-03    1998.3        1.3160        2.0336    
                        213.34        303.55        1637.2       3.71925E-02
     2    8906.2       0.16954        835.04        904.18       0.14204        130.48        1955.1        34.936       5.77120E-02   1.75125E-03    133.65        3.6257        381.09       1.95851E-03    2005.9        1.5411        2.2275    
                        221.05        316.89        1642.7       3.95134E-02
     3    8942.5       0.17589        846.47        908.05       0.15883        133.52        1929.3        36.784       5.87148E-02   1.82249E-03    138.58        3.9177        380.81       2.10679E-03    2009.5        1.6619        2.3291    
                        224.90        323.56        1645.3       4.06667E-02
     1    9015.6       0.18943        869.25        915.72       0.19865        139.69        1876.1        40.751       6.07749E-02   1.97535E-03    148.91        4.5727        380.06       2.44651E-03    2016.4        1.9324        2.5418    
                        232.65        337.09        1650.1       4.31097E-02
     2    9088.7       0.20362        891.87        923.17       0.24651        145.94        1822.1        45.010       6.28533E-02   2.13709E-03    159.66        5.3109        379.12       2.83093E-03    2022.9        2.2368        2.7675    
                        240.42        350.74        1654.5       4.56343E-02
     3    9125.0       0.21078        903.10        926.79       0.27312        149.07        1795.2        47.217       6.38780E-02   2.21914E-03    165.13        5.7051        378.59       3.03278E-03    2025.9        2.3990        2.8849    
                        244.29        357.55        1656.5       4.68863E-02
     1    9198.1       0.22596        925.42        933.88       0.33524        155.43        1740.5        51.928       6.59803E-02   2.39448E-03    176.53        6.5807        377.33       3.49191E-03    2031.5        2.7591        3.1305    
                        252.07        371.33        1660.1       4.95307E-02
     2    9271.2       0.24182        947.55        940.71       0.40863        161.84        1685.6        56.953       6.80970E-02   2.57920E-03    188.35        7.5570        375.84       4.00735E-03    2036.5        3.1601        3.3899    
                        259.84        385.19        1663.1       5.22546E-02
     3    9307.5       0.24980        958.53        943.85       0.44904        165.05        1658.5        59.546       6.91387E-02   2.67270E-03    194.34        8.0750        375.04       4.27668E-03    2038.8        3.3726        3.5239    
                        263.72        392.09        1664.4       5.36029E-02
     1    9380.6       0.26666        980.30        950.24       0.54207        171.53        1603.9        65.051       7.12733E-02   2.87173E-03    206.79        9.2154        373.19       4.88527E-03    2042.8        3.8404        3.8042    
                        271.48        406.03        1666.5       5.64429E-02
     2    9453.7       0.28419        1001.8        956.11       0.65032        178.06        1549.7        70.885       7.34182E-02   3.08059E-03    219.65        10.475        371.09       5.56334E-03    2046.1        4.3568        4.0985    
                        279.22        420.00        1668.1       5.93596E-02
     3    9490.0       0.29299        1012.5        958.66       0.70941        181.32        1523.0        73.885       7.44719E-02   3.18606E-03    226.14        11.139        369.98       5.91606E-03    2047.4        4.6288        4.2494    
                        283.07        426.95        1668.7       6.08005E-02
     1    9563.1       0.31152        1033.7        963.99       0.84374        187.89        1469.8        80.223       7.66287E-02   3.40982E-03    239.59        12.590        367.50       6.70804E-03    2049.5        5.2234        4.5653    
                        290.77        440.94        1669.1       6.38284E-02
     2    9636.2       0.33072        1054.5        968.93       0.99796        194.49        1417.4        86.902       7.87918E-02   3.64375E-03    253.43        14.178        364.75       7.58417E-03    2050.5        5.8742        4.8953    
                        298.43        454.93        1668.6       6.69294E-02
     3    9672.5       0.34033        1064.8        971.06        1.0815        197.78        1391.8        90.323       7.98525E-02   3.76164E-03    260.40        15.011        363.31       8.03798E-03    2050.8        6.2154        5.0635    
                        302.24        461.88        1668.0       6.84585E-02
     1    9745.6       0.36052        1085.3        975.56        1.2692        204.39        1340.8        97.519       8.20215E-02   4.01093E-03    274.79        16.817        360.17       9.05089E-03    2050.3        6.9560        5.4150    
                        309.83        475.85        1666.1       7.16646E-02
     2    9818.7       0.38135        1105.4        979.75        1.4822        211.02        1291.0        105.06       8.41928E-02   4.27066E-03    289.54        18.779        356.77       1.01639E-02    2048.8        7.7606        5.7809    
                        317.38        489.78        1663.8       7.49394E-02
     3    9855.0       0.39176        1115.3        981.77        1.5967        214.31        1266.7        108.91       8.52555E-02   4.40128E-03    296.95        19.803        355.00       1.07382E-02    2048.0        8.1804        5.9674    
                        321.13        496.68        1662.4       7.65514E-02
     1    9928.1       0.41356        1135.0        985.64        1.8516        220.93        1218.7        116.98       8.74268E-02   4.67666E-03    312.21        22.009        351.21       1.20128E-02    2045.1        9.0861        6.3556    
                        328.59        510.54        1658.4       7.99244E-02
     2    10001.       0.43599        1154.3        989.19        2.1376        227.54        1171.9        125.40       8.95963E-02   4.96264E-03    327.80        24.387        347.18       1.34054E-02    2041.3        10.063        6.7582    
                        335.98        524.33        1652.9       8.33611E-02
     3    10038.       0.44718        1163.8        990.85        2.2903        230.83        1149.2        129.69       9.06562E-02   5.10619E-03    335.61        25.623        345.10       1.41214E-02    2039.0        10.571        6.9626    
                        339.65        531.15        1649.7       8.50499E-02
     1    10111.       0.47054        1182.7        993.88        2.6273        237.41        1104.4        138.63       9.28197E-02   5.40798E-03    351.66        28.269        340.71       1.57037E-02    2033.8        11.660        7.3857    
                        346.94        544.83        1642.8       8.85769E-02
     2    10184.       0.49451        1201.2        996.53        3.0017        243.97        1060.9        147.91       9.49776E-02   5.72042E-03    367.99        31.102        336.10       1.74230E-02    2027.7        12.828        7.8225    
                        354.16        558.40        1634.0       9.21622E-02
     3    10220.       0.50643        1210.3        997.75        3.2004        247.22        1039.8        152.63       9.60298E-02   5.87697E-03    376.17        32.569        333.75       1.83040E-02    2024.0        13.432        8.0435    
                        357.74        565.12        1629.1       9.39209E-02
     1    10293.       0.53129        1228.2        999.81        3.6354        253.73        998.42        162.43       9.81759E-02   6.20523E-03    392.90        35.691        328.82       2.02421E-02    2015.7        14.722        8.4995    
                        364.83        578.54        1619.0       9.75879E-02
     2    10366.       0.55672        1245.9        1001.5        4.1143        260.20        959.04        172.57       0.10031       6.54410E-03    409.89        39.014        323.71       2.23367E-02    2005.5        16.096        8.9682    
                        371.84        591.84        1608.2       0.10131    
     3    10402.       0.56935        1254.5        1002.2        4.3671        263.41        940.13        177.70       0.10135       6.71358E-03    418.38        40.727        321.12       2.34065E-02    1999.6        16.805        9.2016    
                        375.31        598.41        1602.8       0.10313    
     1    10476.       0.59561        1271.6        1003.3        4.9165        269.81        903.07        188.33       0.10347       7.06812E-03    435.71        44.357        315.74       2.57492E-02    1987.1        18.310        9.6880    
                        382.19        611.51        1590.6       0.10692    
     2    10549.       0.62241        1288.3        1003.9        5.5164        276.16        867.06        199.29       0.10558       7.43312E-03    453.26        48.197        310.22       2.82681E-02    1973.5        19.905        10.181    
                        388.96        624.48        1577.5       0.11076    
     3    10585.       0.63570        1296.4        1004.1        5.8316        279.31        849.43        204.83       0.10660       7.61535E-03    462.01        50.171        307.43       2.95504E-02    1966.3        20.725        10.423    
                        392.32        630.88        1571.0       0.11263    
     1    10658.       0.66327        1312.6        1004.1        6.5118        285.58        815.09        216.26       0.10868       7.99573E-03    479.84        54.332        301.71       3.23465E-02    1950.8        22.459        10.928    
                        398.95        643.62        1556.4       0.11653    
     2    10731.       0.69134        1328.3        1003.6        7.2490        291.79        781.90        228.00       0.11075       8.38632E-03    497.84        58.711        295.87       3.53378E-02    1934.0        24.287        11.439    
                        405.47        656.21        1541.0       0.12047    
     3    10768.       0.70522        1336.0        1003.2        7.6345        294.86        765.69        233.92       0.11175       8.58101E-03    506.81        60.955        292.94       3.68560E-02    1925.3        25.224        11.690    
                        408.69        662.41        1533.1       0.12240    
     1    10841.       0.73399        1351.1        1002.0        8.4615        300.96        734.23        246.11       0.11378       8.98653E-03    525.03        65.665        286.96       4.01528E-02    1906.6        27.197        12.212    
                        415.05        674.74        1516.3       0.12639    
     2    10914.       0.76321        1365.9        1000.3        9.3517        306.99        703.90        258.58       0.11580       9.40192E-03    543.39        70.596        280.91       4.36634E-02    1886.8        29.268        12.741    
                        421.30        686.90        1498.5       0.13042    
     3    10950.       0.77764        1373.1        999.27        9.8151        309.97        689.12        264.86       0.11677       9.60865E-03    552.52        73.117        277.88       4.54403E-02    1876.6        30.326        13.000    
                        424.38        692.88        1489.5       0.13238    
     1    11023.       0.80749        1387.2        996.75        10.804        315.90        660.48        277.74       0.11875       1.00384E-02    571.04        78.384        271.75       4.92846E-02    1855.0        32.545        13.537    
                        430.45        704.76        1470.5       0.13644    
     2    11096.       0.83773        1400.9        993.71        11.862        321.73        632.94        290.89       0.12071       1.04776E-02    589.65        83.875        265.58       5.33616E-02    1832.4        34.864        14.080    
                        436.40        716.45        1450.7       0.14054    
     3    11132.       0.85264        1407.6        992.07        12.410        324.61        619.53        297.49       0.12165       1.06958E-02    598.89        86.674        262.50       5.54287E-02    1820.9        36.046        14.352    
                        439.34        722.20        1440.7       0.14253    
     1    11206.       0.88344        1420.6        988.23        13.574        330.34        593.60        311.01       0.12356       1.11487E-02    617.61        92.500        256.30       5.98770E-02    1796.8        38.516        14.906    
                        445.10        733.59        1419.9       0.14665    
     2    11279.       0.91458        1433.2        983.86        14.812        335.94        568.68        324.77       0.12545       1.16104E-02    636.38        98.548        250.09       6.45815E-02    1771.8        41.087        15.467    
                        450.74        744.77        1398.5       0.15079    
     3    11315.       0.92991        1439.3        981.55        15.452        338.74        556.56        331.67       0.12636       1.18395E-02    645.68        101.62        247.01       6.69601E-02    1759.1        42.395        15.748    
                        453.52        750.27        1387.6       0.15281    
     1    11388.       0.96152        1451.2        976.37        16.803        344.20        533.15        345.76       0.12820       1.23141E-02    664.50        108.00        240.82       7.20577E-02    1732.9        45.117        16.317    
                        458.92        761.13        1365.4       0.15697    
     2    11461.       0.99342        1462.7        970.66        18.233        349.56        510.68        360.06       0.13000       1.27971E-02    683.33        114.60        234.66       7.74257E-02    1705.8        47.940        16.892    
                        464.17        771.77        1342.6       0.16114    
     3    11498.        1.0091        1468.2        967.69        18.969        352.27        499.75        367.21       0.13087       1.30363E-02    692.65        117.95        231.61       8.01331E-02    1692.2        49.372        17.179    
                        466.79        777.00        1331.1       0.16317    
     1    11571.        1.0414        1478.9        961.19        20.517        357.48        478.67        381.79       0.13263       1.35312E-02    711.47        124.87        225.50       8.59138E-02    1664.2        52.345        17.760    
                        471.83        787.30        1307.7       0.16735    
     2    11644.        1.0739        1489.1        954.18        22.147        362.59        458.45        396.56       0.13435       1.40337E-02    730.26        132.00        219.45       9.19769E-02    1635.6        55.418        18.344    
                        476.76        797.37        1284.0       0.17154    
     3    11680.        1.0899        1494.0        950.57        22.983        365.22        448.62        403.93       0.13517       1.42822E-02    739.55        135.60        216.46       9.50277E-02    1621.2        56.973        18.636    
                        479.17        802.30        1272.1       0.17356    
     1    11753.        1.1227        1503.4        942.80        24.736        370.15        429.66        418.94       0.13684       1.47956E-02    758.29        143.04        210.50       0.10152        1591.8        60.192        19.224    
                        483.91        812.01        1247.9       0.17775    
     2    11826.        1.1557        1512.2        934.54        26.572        375.03        411.50        434.09       0.13846       1.53159E-02    776.96        150.68        204.61       0.10830        1562.1        63.507        19.815    
                        488.52        821.47        1223.5       0.18193    
     3    11862.        1.1718        1516.5        930.33        27.512        377.54        402.67        441.64       0.13924       1.55729E-02    786.18        154.54        201.70       0.11171        1547.2        65.181        20.110    
                        490.75        826.10        1211.3       0.18395    
     1    11936.        1.2051        1524.5        921.37        29.473        382.22        385.65        456.99       0.14080       1.61029E-02    804.74        162.47        195.93       0.11894        1516.9        68.638        20.704    
                        495.18        835.18        1186.6       0.18811    
     2    12009.        1.2384        1532.0        911.96        31.519        386.83        369.35        472.46       0.14233       1.66390E-02    823.20        170.58        190.25       0.12646        1486.4        72.187        21.300    
                        499.49        843.99        1161.9       0.19227    
     3    12045.        1.2547        1535.5        907.19        32.564        389.16        361.42        480.15       0.14305       1.69035E-02    832.32        174.68        187.44       0.13023        1471.2        73.977        21.596    
                        501.57        848.30        1149.6       0.19427    
     1    12118.        1.2881        1542.1        897.15        34.736        393.61        346.16        495.77       0.14451       1.74481E-02    850.62        183.06        181.90       0.13820        1440.3        77.660        22.193    
                        505.64        856.70        1124.7       0.19841    
     2    12191.        1.3216        1548.0        886.71        36.993        397.97        331.54        511.46       0.14592       1.79981E-02    868.80        191.63        176.45       0.14647        1409.4        81.431        22.790    
                        509.42        864.83        1099.9       0.20252    
     3    12228.        1.3380        1550.8        881.44        38.142        400.11        324.43        519.26       0.14658       1.82690E-02    877.76        195.93        173.77       0.15060        1394.1        83.329        23.087    
                        511.14        868.78        1087.6       0.20450    
     1    12301.        1.3715        1555.8        870.44        40.525        404.29        310.75        535.06       0.14793       1.88262E-02    895.74        204.74        168.48       0.15932        1363.1        87.227        23.683    
                        514.55        876.48        1062.8       0.20858    
     2    12374.        1.4051        1560.2        859.10        42.991        408.33        297.65        550.91       0.14922       1.93878E-02    913.55        213.71        163.30       0.16834        1332.1        91.205        24.278    
                        517.70        883.88        1038.1       0.21263    
     3    12410.        1.4214        1562.2        853.40        44.244        410.30        291.28        558.78       0.14983       1.96640E-02    922.32        218.21        160.74       0.17284        1316.8        93.204        24.574    
                        519.21        887.47        1025.9       0.21457    
     1    12483.        1.4549        1565.6        841.58        46.833        414.19        279.02        574.69       0.15105       2.02315E-02    939.89        227.40        155.72       0.18231        1286.0        97.299        25.167    
                        522.11        894.42        1001.5       0.21857    
     2    12556.        1.4883        1568.4        829.48        49.504        417.95        267.28        590.61       0.15223       2.08025E-02    957.26        236.73        150.82       0.19209        1255.3        101.47        25.757    
                        524.84        901.04        977.19       0.22254    
     3    12592.        1.5046        1569.5        823.42        50.858        419.79        261.58        598.51       0.15277       2.10828E-02    965.80        241.40        148.40       0.19695        1240.1        103.56        26.051    
                        526.15        904.24        965.21       0.22445    
     1    12666.        1.5379        1571.3        810.93        53.648        423.35        250.59        614.44       0.15387       2.16583E-02    982.88        250.92        143.66       0.20717        1209.7        107.84        26.637    
                        528.57        910.39        941.24       0.22836    
     2    12739.        1.5710        1572.3        798.22        56.517        426.76        240.08        630.37       0.15491       2.22362E-02    999.75        260.56        139.04       0.21769        1179.6        112.18        27.221    
                        530.78        916.19        917.52       0.23223    
     3    12775.        1.5871        1572.6        791.88        57.968        428.30        234.97        638.25       0.15539       2.25196E-02    1008.1        265.39        136.76       0.22291        1164.7        114.35        27.510    
                        531.83        919.00        905.84       0.23408    
     1    12848.        1.6200        1572.7        778.87        60.951        431.40        225.14        654.15       0.15636       2.31006E-02    1024.6        275.19        132.31       0.23386        1135.0        118.79        28.088    
                        533.72        924.33        882.53       0.23788    
     2    12921.        1.6528        1571.9        765.69        64.009        434.22        215.72        670.00       0.15727       2.36831E-02    1040.9        285.10        127.97       0.24511        1105.6        123.28        28.662    
                        535.40        929.25        859.52       0.24163    
     3    12958.        1.6686        1571.5        759.13        65.552        435.47        211.14        677.85       0.15768       2.39683E-02    1048.9        290.05        125.84       0.25068        1091.1        125.53        28.946    
                        536.18        931.64        848.21       0.24342    
     1    13031.        1.7010        1569.7        745.74        68.717        437.98        202.33        693.63       0.15851       2.45523E-02    1064.8        300.10        121.68       0.26235        1062.2        130.10        29.512    
                        537.53        936.03        825.68       0.24710    
     2    13104.        1.7332        1567.4        732.24        71.952        440.27        193.87        709.33       0.15929       2.51369E-02    1080.4        310.22        117.62       0.27430        1033.7        134.73        30.073    
                        538.67        940.06        803.49       0.25072    
     3    13140.        1.7488        1566.0        725.54        73.582        441.33        189.75        717.11       0.15964       2.54226E-02    1088.1        315.27        115.63       0.28021        1019.8        137.04        30.351    
                        539.18        942.09        792.59       0.25244    
     1    13213.        1.7805        1562.5        711.92        76.916        443.39        181.81        732.69       0.16033       2.60072E-02    1103.3        325.50        111.75       0.29257        991.89        141.73        30.903    
                        539.98        945.51        770.94       0.25597    
     2    13286.        1.8120        1558.8        698.24        80.315        445.32        174.14        748.17       0.16097       2.65913E-02    1118.2        335.79        107.97       0.30520        964.46        146.46        31.449    
                        540.55        948.62        749.66       0.25943    
     3    13322.        1.8272        1556.8        691.46        82.025        446.21        170.41        755.83       0.16125       2.68763E-02    1125.5        340.91        106.12       0.31144        951.03        148.82        31.719    
                        540.79        950.22        739.23       0.26107    
     1    13396.        1.8581        1552.0        677.73        85.515        447.84        163.23        771.16       0.16180       2.74588E-02    1139.9        351.28        102.51       0.32446        924.29        153.61        32.255    
                        541.03        952.84        718.52       0.26444    
     2    13469.        1.8887        1546.4        663.98        89.062        449.29        156.40        786.36       0.16230       2.80399E-02    1154.0        361.68        99.001       0.33773        898.03        158.43        32.784    
                        541.04        955.16        698.21       0.26774    
     3    13505.        1.9035        1543.3        657.19        90.844        449.94        153.10        793.87       0.16251       2.83229E-02    1160.9        366.86        97.281       0.34428        885.18        160.83        33.044    
                        540.99        956.20        688.26       0.26930    
     1    13578.        1.9335        1536.5        643.47        94.473        451.10        146.72        808.86       0.16293       2.89009E-02    1174.5        377.31        93.933       0.35792        859.65        165.69        33.561    
                        540.67        957.90        668.55       0.27249    
     2    13651.        1.9631        1528.7        629.78        98.154        452.08        140.63        823.70       0.16329       2.94764E-02    1187.7        387.77        90.687       0.37180        834.63        170.57        34.070    
                        540.12        959.36        649.25       0.27561    
     3    13688.        1.9773        1524.6        623.03        100.00        452.52        137.68        831.03       0.16343       2.97562E-02    1194.2        392.97        89.095       0.37863        822.40        173.00        34.320    
                        539.79        960.00        639.81       0.27708    
     1    13761.        2.0062        1515.9        609.42        103.75        453.23        131.99        845.63       0.16371       3.03270E-02    1206.8        403.46        85.999       0.39285        798.14        177.91        34.815    
                        538.90        960.96        621.12       0.28008    
     2    13834.        2.0347        1506.7        595.89        107.55        453.75        126.55        860.05       0.16393       3.08944E-02    1219.1        413.94        83.000       0.40729        774.40        182.84        35.301    
                        537.79        961.44        602.85       0.28300    
     3    13870.        2.0483        1501.9        589.22        109.45        453.96        123.92        867.15       0.16400       3.11697E-02    1225.1        419.13        81.529       0.41439        762.81        185.28        35.540    
                        537.19        961.41        593.91       0.28436    
     1    13943.        2.0760        1491.8        575.83        113.31        454.19        118.83        881.28       0.16414       3.17309E-02    1236.8        429.60        78.672       0.42914        739.85        190.23        36.012    
                        535.74        961.16        576.26       0.28716    
     2    14016.        2.1032        1481.0        562.54        117.20        454.24        113.96        895.21       0.16423       3.22876E-02    1248.1        440.04        75.907       0.44409        717.42        195.17        36.473    
                        534.09        960.27        559.03       0.28988    
     3    14052.        2.1162        1475.5        556.00        119.15        454.21        111.61        902.07       0.16423       3.25571E-02    1253.6        445.21        74.552       0.45143        706.48        197.62        36.700    
                        533.21        959.54        550.60       0.29114    
     1    14126.        2.1425        1463.9        542.90        123.09        453.97        107.06        915.67       0.16424       3.31062E-02    1264.2        455.61        71.921       0.46667        684.83        202.57        37.145    
                        531.23        957.86        533.98       0.29372    
     2    14199.        2.1683        1451.7        529.92        127.06        453.54        102.70        929.05       0.16420       3.36498E-02    1274.5        465.96        69.377       0.48208        663.71        207.51        37.579    
                        529.04        955.79        517.77       0.29621    
     3    14235.        2.1806        1445.6        523.55        129.04        453.28        100.59        935.62       0.16414       3.39125E-02    1279.4        471.09        68.129       0.48963        653.41        209.96        37.792    
                        527.91        954.66        509.85       0.29736    
     1    14308.        2.2054        1432.7        510.80        133.05        452.57        96.509        948.63       0.16401       3.44471E-02    1289.0        481.37        65.711       0.50528        633.06        214.89        38.209    
                        525.41        952.09        494.24       0.29972    
     2    14381.        2.2297        1419.3        498.21        137.08        451.67        92.602        961.38       0.16384       3.49752E-02    1298.1        491.59        63.373       0.52109        613.23        219.81        38.614    
                        522.71        949.11        479.04       0.30199    
     3    14418.        2.2412        1412.5        492.02        139.09        451.18        90.715        967.64       0.16371       3.52298E-02    1302.4        496.64        62.227       0.52883        603.57        222.25        38.812    
                        521.33        947.50        471.62       0.30302    
     1    14491.        2.2645        1398.4        479.68        143.15        450.00        87.054        979.99       0.16346       3.57475E-02    1310.8        506.75        60.007       0.54485        584.51        227.15        39.199    
                        518.34        943.89        457.00       0.30514    
     2    14564.        2.2871        1383.9        467.52        147.22        448.65        83.549        992.06       0.16317       3.62579E-02    1318.7        516.78        57.862       0.56100        565.95        232.02        39.573    
                        515.16        939.90        442.78       0.30717    
     3    14600.        2.2978        1376.5        461.55        149.25        447.92        81.857        997.97       0.16298       3.65033E-02    1322.5        521.74        56.810       0.56889        556.91        234.44        39.755    
                        513.54        937.82        435.84       0.30809    
