  STEP   TOTAL TIME             LOCATION OF OBSERVATION POINTS (K,I,J)
                      1  32  50     1  19  57     1  21  49     1  28  77     1  25  61     1  13  32     1  20  70     1  31  33     1  34  39     1  19  66     1  23  75     1  22  39     1  35  56     1  18  45     1   6  67     1  31  60
                      1   9  53     1  22  61     1  12  41     1  32  41
     1    59.811       2.44147E-23   1.55424E-18   7.09397E-14   5.43836E-34   7.80176E-23   1.30927E-03   2.15296E-27   1.66516E-15   1.03761E-20   1.20007E-24   5.82256E-31   8.89723E-09   2.63125E-29   1.20491E-10   1.18834E-31   9.95420E-27
                       1.65045E-19   1.03074E-21   5.75819E-10   1.87204E-19
     2    119.62       2.47565E-23   1.63000E-18   8.31421E-14   5.44652E-34   7.96713E-23   4.63775E-03   2.16531E-27   1.79067E-15   1.06046E-20   1.21300E-24   5.83869E-31   1.36630E-08   2.64191E-29   1.59983E-10   1.19433E-31   1.00418E-26
                       1.73132E-19   1.05667E-21   7.61656E-10   1.91504E-19
     3    179.43       2.51048E-23   1.71039E-18   9.81255E-14   5.45470E-34   8.13700E-23   1.88846E-02   2.17774E-27   1.92989E-15   1.08395E-20   1.22609E-24   5.85487E-31   2.24872E-08   2.65264E-29   2.17720E-10   1.20036E-31   1.01304E-26
                       1.81702E-19   1.08342E-21   1.03984E-09   1.95928E-19
     4    239.24       2.54598E-23   1.79575E-18   1.16716E-13   5.46289E-34   8.31151E-23   7.22654E-02   2.19026E-27   2.08503E-15   1.10810E-20   1.23936E-24   5.87110E-31   4.18289E-08   2.66342E-29   3.06754E-10   1.20644E-31   1.02201E-26
                       1.90790E-19   1.11102E-21   1.50711E-09   2.00482E-19
     5    299.06       2.58217E-23   1.88645E-18   1.40057E-13   5.47110E-34   8.49082E-23   0.23684       2.20287E-27   2.25894E-15   1.13294E-20   1.25280E-24   5.88739E-31   9.62478E-08   2.67427E-29   4.60392E-10   1.21256E-31   1.03109E-26
                       2.00431E-19   1.13951E-21   2.58270E-09   2.05171E-19
     6    358.87       2.61906E-23   1.98288E-18   1.69776E-13   5.47932E-34   8.67510E-23   0.65626       2.21557E-27   2.45549E-15   1.15850E-20   1.26642E-24   5.90373E-31   2.91657E-07   2.68519E-29   8.18046E-10   1.21872E-31   1.04029E-26
                       2.10668E-19   1.16890E-21   6.29240E-09   2.09999E-19
     7    418.68       2.65668E-23   2.08547E-18   2.08306E-13   5.48757E-34   8.86450E-23    1.5623       2.22835E-27   2.68103E-15   1.18479E-20   1.28023E-24   5.92013E-31   1.08923E-06   2.69617E-29   2.00450E-09   1.22492E-31   1.04960E-26
                       2.21542E-19   1.19925E-21   2.33290E-08   2.14972E-19
     8    478.49       2.69505E-23   2.19469E-18   2.59984E-13   5.49582E-34   9.05922E-23    3.2696       2.24123E-27   2.94938E-15   1.21185E-20   1.29421E-24   5.93659E-31   4.34706E-06   2.70721E-29   7.17302E-09   1.23117E-31   1.05903E-26
                       2.33101E-19   1.23059E-21   1.08318E-07   2.20095E-19
     9    538.30       2.73418E-23   2.31106E-18   3.38824E-13   5.50410E-34   9.25942E-23    6.1477       2.25420E-27   3.30193E-15   1.23970E-20   1.30838E-24   5.95310E-31   1.66731E-05   2.71833E-29   3.21512E-08   1.23746E-31   1.06858E-26
                       2.45397E-19   1.26295E-21   5.11306E-07   2.25375E-19
    10    598.11       2.77410E-23   2.43510E-18   5.35808E-13   5.51239E-34   9.46531E-23    10.581       2.26725E-27   3.88868E-15   1.26837E-20   1.32274E-24   5.96968E-31   5.85498E-05   2.72950E-29   1.50435E-07   1.24379E-31   1.07824E-26
                       2.58485E-19   1.29638E-21   2.22894E-06   2.30816E-19
    11    657.92       2.81482E-23   2.56743E-18   1.47436E-12   5.52069E-34   9.67709E-23    16.926       2.28040E-27   5.29570E-15   1.29789E-20   1.33729E-24   5.98630E-31   1.85602E-04   2.74075E-29   6.67328E-07   1.25017E-31   1.08803E-26
                       2.72427E-19   1.33093E-21   8.73675E-06   2.36426E-19
    12    717.73       2.85638E-23   2.70868E-18   8.05111E-12   5.52901E-34   9.89496E-23    25.476       2.29364E-27   9.85454E-15   1.32830E-20   1.35203E-24   6.00299E-31   5.31659E-04   2.75206E-29   2.71158E-06   1.25659E-31   1.09795E-26
                       2.87287E-19   1.36662E-21   3.08344E-05   2.42212E-19
    13    730.00       2.86485E-23   2.73724E-18   1.03067E-11   5.53057E-34   9.93495E-23    27.462       2.29629E-27   1.08775E-14   1.33426E-20   1.35500E-24   6.00609E-31   6.28271E-04   2.75434E-29   3.30674E-06   1.25778E-31   1.09993E-26
                       2.90180E-19   1.37336E-21   3.67022E-05   2.43294E-19
     1    789.81       2.90744E-23   2.89005E-18   7.67260E-11   5.53891E-34   1.01603E-22    38.939       2.30964E-27   3.11056E-14   1.36577E-20   1.36998E-24   6.02284E-31   1.62062E-03   2.76573E-29   1.21987E-05   1.26425E-31   1.11000E-26
                       3.06228E-19   1.41049E-21   1.17309E-04   2.49307E-19
     2    849.62       2.95091E-23   3.05366E-18   5.42149E-10   5.54727E-34   1.03922E-22    52.959       2.32309E-27   1.08357E-13   1.39823E-20   1.38516E-24   6.03966E-31   3.83392E-03   2.77719E-29   4.11670E-05   1.27077E-31   1.12019E-26
                       3.23360E-19   1.44886E-21   3.42472E-04   2.55587E-19
     3    909.43       2.99528E-23   3.24344E-18   3.36520E-09   5.55564E-34   1.06309E-22    69.524       2.33663E-27   3.88662E-13   1.43171E-20   1.40055E-24   6.05653E-31   8.39301E-03   2.78872E-29   1.27903E-04   1.27734E-31   1.13052E-26
                       3.41666E-19   1.48855E-21   9.28358E-04   2.62605E-19
     4    969.24       3.04060E-23   3.63610E-18   1.81468E-08   5.56403E-34   1.08767E-22    88.549       2.35027E-27   1.33131E-12   1.46634E-20   1.41614E-24   6.07345E-31   1.71413E-02   2.80033E-29   3.67773E-04   1.28395E-31   1.14098E-26
                       3.61315E-19   1.52959E-21   2.32595E-03   2.73589E-19
     5    1029.1       3.08688E-23   6.30451E-18   8.60588E-08   5.57243E-34   1.11298E-22    109.88       2.36400E-27   4.25411E-12   1.50272E-20   1.43195E-24   6.09044E-31   3.28991E-02   2.81200E-29   9.72821E-04   1.29061E-31   1.15158E-26
                       3.84127E-19   1.57205E-21   5.39601E-03   3.09750E-19
     6    1088.9       3.13415E-23   3.77085E-17   3.62532E-07   5.58085E-34   1.13905E-22    133.32       2.37783E-27   1.26350E-11   1.54399E-20   1.44796E-24   6.10749E-31   5.97243E-02   2.82374E-29   2.38196E-03   1.29732E-31   1.16232E-26
                       4.42480E-19   1.61598E-21   1.16782E-02   5.05442E-19
     7    1148.7       3.18247E-23   4.38590E-16   1.37146E-06   5.58929E-34   1.16590E-22    158.63       2.39176E-27   3.49847E-11   1.60700E-20   1.46420E-24   6.12459E-31   0.10314       2.83555E-29   5.43599E-03   1.30407E-31   1.17320E-26
                       9.12139E-19   1.66143E-21   2.37426E-02   1.68533E-18
     8    1208.5       3.23214E-23   5.07172E-15   4.73495E-06   5.59774E-34   1.19357E-22    185.58       2.40579E-27   9.07545E-11   1.77975E-20   1.48065E-24   6.14176E-31   0.17030       2.84744E-29   1.16386E-02   1.31087E-31   1.18422E-26
                       6.58566E-18   1.70845E-21   4.56276E-02   8.75425E-18
     9    1268.3       3.28717E-23   5.00860E-14   1.48649E-05   5.60621E-34   1.22208E-22    213.92       2.41992E-27   2.21735E-10   2.51645E-20   1.49733E-24   6.15898E-31   0.27005       2.85940E-29   2.35167E-02   1.31772E-31   1.19539E-26
                       7.79929E-17   1.76128E-21   8.33437E-02   4.84929E-17
    10    1328.1       3.40487E-23   4.17094E-13   4.25042E-05   5.61470E-34   1.25147E-22    243.38       2.43414E-27   5.12818E-10   6.07800E-20   1.51423E-24   6.17626E-31   0.41289       2.87143E-29   4.50816E-02   1.32462E-31   1.20671E-26
                       8.76741E-16   1.96417E-21   0.14541       2.50103E-16
    11    1387.9       4.39169E-23   2.96159E-12   1.11836E-04   5.62320E-34   1.28210E-22    273.74       2.44847E-27   1.12789E-09   2.35815E-19   1.53137E-24   6.19361E-31   0.61084       2.88354E-29   8.23814E-02   1.33157E-31   1.21818E-26
                       8.40031E-15   5.02252E-21   0.24336       1.16679E-15
    12    1447.7       1.73912E-22   1.82127E-11   2.73157E-04   5.63172E-34   1.33538E-22    304.75       2.46290E-27   2.36902E-09   1.07135E-18   1.54873E-24   6.21101E-31   0.87712       2.89572E-29   0.14411       1.33856E-31   1.22980E-26
                       6.82536E-14   6.53697E-20   0.39221       4.92253E-15
    13    1460.0       2.23402E-22   2.28399E-11   3.17283E-04   5.63332E-34   1.35488E-22    311.14       2.46581E-27   2.66277E-09   1.22850E-18   1.55230E-24   6.21426E-31   0.93905       2.89818E-29   0.15961       1.33986E-31   1.23213E-26
                       8.92971E-14   9.00072E-20   0.42827       5.48411E-15
     1    1519.8       2.68033E-21   1.23985E-10   7.19699E-04   5.64186E-34   2.40717E-22    342.63       2.48037E-27   5.34006E-09   5.57483E-18   1.57000E-24   6.23173E-31    1.3061       2.91045E-29   0.26667       1.34692E-31   1.24394E-26
                       6.17354E-13   1.81140E-18   0.66333       2.16080E-14
     2    1579.6       3.32757E-20   5.94318E-10   1.53678E-03   5.65041E-34   2.89367E-21    374.26       2.49502E-27   1.02988E-08   2.36888E-17   1.58951E-24   6.24927E-31    1.7732       2.92280E-29   0.42972       1.35403E-31   1.25592E-26
                       3.72230E-12   3.02092E-17   0.99611       7.75966E-14
     3    1639.4       3.49489E-19   2.55607E-09   3.10789E-03   5.65899E-34   7.20789E-20    405.84       2.50979E-27   1.91618E-08   9.31948E-17   1.63835E-24   6.26687E-31    2.3550       2.93523E-29   0.66992       1.36118E-31   1.26805E-26
                       1.98026E-11   4.02569E-16    1.4542       2.56202E-13
     4    1699.2       3.06373E-18   9.97489E-09   5.98387E-03   5.66758E-34   1.59699E-18    437.22       2.52465E-27   3.44925E-08   3.39916E-16   2.25183E-24   6.28453E-31    3.0656       2.94773E-29    1.0132       1.36840E-31   1.28039E-26
                       9.40868E-11   4.36184E-15    2.0690       7.86726E-13
     5    1759.1       2.27652E-17   3.57186E-08   1.10181E-02   5.67618E-34   2.79592E-17    468.29       2.53963E-27   6.02214E-08   1.15462E-15   1.41045E-23   6.30225E-31    3.9179       2.96032E-29    1.4905       1.37566E-31   1.29389E-26
                       4.03636E-10   3.92654E-14    2.8752       2.25988E-12
     6    1818.9       1.45818E-16   1.18126E-07   1.94787E-02   5.68481E-34   3.88238E-16    498.97       2.55470E-27   1.02211E-07   3.67006E-15   2.53400E-22   6.32003E-31    4.9239       2.97304E-29    2.1372       1.38297E-31   1.33729E-26
                       1.57932E-09   2.99398E-13    3.9100       6.10743E-12
     7    1878.7       8.17069E-16   3.64450E-07   3.31797E-02   5.69345E-34   4.36466E-15    529.16       2.56978E-27   1.68982E-07   1.09586E-14   4.71883E-21   6.33788E-31    6.0936       2.98711E-29    2.9936       1.39034E-31   2.25751E-26
                       5.68523E-09   1.96612E-12    5.2128       1.56091E-11
     8    1938.5       4.05901E-15   1.05166E-06   5.46254E-02   5.70210E-34   4.05398E-14    558.78       2.58763E-27   2.72633E-07   3.08982E-14   7.44888E-20   6.35579E-31    7.4353       3.02786E-29    4.1033       1.39776E-31   2.85344E-25
                       1.89726E-08   1.12895E-11    6.8239       3.78974E-11
     9    1998.3       1.80878E-14   2.87028E-06   8.71627E-02   5.71077E-34   3.17014E-13    587.75       2.66680E-27   4.29962E-07   8.26687E-14   9.81179E-19   6.37376E-31    8.9552       3.60945E-29    5.5135       1.40524E-31   7.93086E-24
                       5.91177E-08   5.74034E-11    8.7840       8.77594E-11
    10    2058.1       7.30489E-14   7.39494E-06   0.13513       5.71946E-34   2.12278E-12    615.97       4.18908E-27   6.63824E-07   2.10746E-13   1.08962E-17   6.39179E-31    10.657       1.48965E-28    7.2731       1.41277E-31   1.99331E-22
                       1.73299E-07   2.61687E-10    11.133       1.94518E-10
    11    2117.9       2.69791E-13   1.82395E-05   0.20401       5.72817E-34   1.23573E-11    643.38       4.03064E-26   1.00474E-06   5.13724E-13   1.03387E-16   6.40988E-31    12.544       2.30078E-27    9.4325       1.42035E-31   4.01670E-21
                       4.78912E-07   1.07984E-09    13.909       4.13984E-10
    12    2177.7       9.18526E-13   4.26089E-05   0.30053       5.73690E-34   6.34422E-11    669.80       9.23646E-25   1.49272E-06   1.20107E-12   8.48536E-16   6.42804E-31    14.614       4.08690E-26    12.042       1.42799E-31   6.50065E-20
                       1.26049E-06   4.07601E-09    17.148       8.48440E-10
    13    2190.0       1.09735E-12   4.86424E-05   0.32365       5.73853E-34   7.98766E-11    675.42       1.25493E-24   1.60160E-06   1.35359E-12   1.08238E-15   6.43144E-31    15.058       6.78970E-26    12.629       1.42941E-31   1.26376E-19
                       1.46715E-06   4.95047E-09    17.865       9.36595E-10
     1    2249.8       3.45707E-12   1.07170E-04   0.46419       5.74728E-34   3.64689E-10    700.67       2.93200E-23   2.33234E-06   3.03392E-12   7.87852E-15   6.44967E-31    17.347       9.94543E-25    15.846       1.43711E-31   1.41033E-18
                       3.63056E-06   1.71461E-08    21.705       1.85031E-09
     2    2309.6       1.01649E-11   2.23931E-04   0.65204       5.75604E-34   1.49912E-09    725.18       5.55583E-22   3.34182E-06   6.55711E-12   5.01722E-14   6.46797E-31    19.812       1.20943E-23    19.617       1.44468E-31   1.42228E-17
                       8.45814E-06   5.51190E-08    26.076       3.53648E-09
     3    2369.4       2.80578E-11   4.46388E-04   0.89837       5.76482E-34   5.60227E-09    748.95       8.62811E-21   4.71558E-06   1.36945E-11   2.83683E-13   6.48628E-31    22.447       1.24679E-22    23.986       1.45530E-31   1.25717E-16
                       1.86331E-05   1.65218E-07    31.001       6.55422E-09
     4    2429.2       7.30880E-11   8.52858E-04    1.2157       5.77361E-34   1.92857E-08    771.95       1.11885E-19   6.55862E-06   2.76934E-11   1.44029E-12   6.50324E-31    25.245       1.10416E-21    28.991       1.55531E-31   9.66881E-16
                       3.90172E-05   4.66984E-07    36.498       1.18039E-08
     5    2489.1       1.80523E-10   1.56776E-03    1.6180       5.78243E-34   6.13439E-08    794.19       1.23149E-18   8.99863E-06   5.43264E-11   6.63248E-12   6.53995E-31    28.196       8.50015E-21    34.666       4.45234E-31   6.48657E-15
                       7.80266E-05   1.24310E-06    42.582       2.07001E-08
     6    2548.9       4.24567E-10   2.78204E-03    2.1200       5.79126E-34   1.82550E-07    815.61       1.16667E-17   1.21891E-05   1.03562E-10   2.79248E-11   7.26172E-31    31.291       5.75267E-20    41.041       9.92153E-30   3.82961E-14
                       1.49642E-04   3.15838E-06    49.262       3.54062E-08
     7    2608.7       9.54400E-10   4.77947E-03    2.7377       5.80010E-34   5.07644E-07    836.16       9.62833E-17   1.63117E-05   1.92154E-10   1.08326E-10   3.26916E-30    34.517       3.45906E-19    48.136       3.32549E-28   2.00286E-13
                       2.76236E-04   7.60097E-06    56.541       5.91576E-08
     8    2668.5       2.05760E-09   7.96963E-03    3.4877       5.80897E-34   1.31400E-06    855.81       6.99611E-16   2.15803E-05   3.47540E-10   3.89557E-10   9.51325E-29    37.864       1.86599E-18    55.968       9.86679E-27   9.34398E-13
                       4.92410E-04   1.72646E-05    64.418       9.66873E-08
     9    2728.3       4.26742E-09   1.29278E-02    4.3872       5.81785E-34   3.18262E-06    874.57       4.51901E-15   2.82433E-05   6.13589E-10   1.30674E-09   3.34428E-27    41.318       9.11070E-18    64.545       2.43616E-25   3.93137E-12
                       8.50025E-04   3.71822E-05    72.886       1.54780E-07
    10    2788.1       8.53779E-09   2.04419E-02    5.4534       5.82675E-34   7.26506E-06    892.48       2.61718E-14   3.65859E-05   1.05885E-09   4.10939E-09   9.87439E-26    44.868       4.05829E-17    73.872       5.01501E-24   1.50454E-11
                       1.42461E-03   7.63227E-05    81.937       2.42980E-07
    11    2847.9       1.65191E-08   3.15663E-02    6.7036       5.83565E-34   1.57235E-05    909.66       1.37015E-13   4.69375E-05   1.78814E-09   1.21736E-08   2.37101E-24    48.501       1.66115E-16    83.944       8.68947E-23   5.26244E-11
                       2.32325E-03   1.49989E-04    91.553       3.74465E-07
    12    2907.7       3.09791E-08   4.76812E-02    8.1548       5.84381E-34   3.24298E-05    926.50       6.52993E-13   5.96584E-05   2.95852E-09   3.41333E-08   4.67416E-23    52.205       6.28905E-16    94.752       1.27986E-21   1.69397E-10
                       3.69416E-03   2.83301E-04    101.72       5.67136E-07
    13    2920.0       3.44240E-08   5.15294E-02    8.4756       5.84623E-34   3.67867E-05    929.89       8.02282E-13   6.24125E-05   3.21670E-09   3.99721E-08   6.30762E-23    52.974       7.71859E-16    97.063       2.26939E-21   2.06829E-10
                       4.02632E-03   3.17039E-04    103.87       6.07248E-07
     1    2979.8       6.24864E-08   7.59948E-02    10.191       5.88689E-34   7.22513E-05    946.10       3.51896E-12   7.85086E-05   5.20585E-09   1.06066E-07   1.07514E-21    56.744       2.71315E-15    108.74       2.54345E-20   6.10982E-10
                       6.23026E-03   5.74883E-04    114.66       9.02745E-07
     2    3039.6       1.10381E-07   0.10996        12.141       7.28106E-34   1.36349E-04    961.71       1.41683E-11   9.79492E-05   8.27221E-09   2.68479E-07   1.50827E-20    60.558       8.89460E-15    121.11       2.63120E-19   1.68800E-09
                       9.43405E-03   1.00837E-03    125.95       1.32143E-06
     3    3099.4       1.90087E-07   0.15630        14.342       7.53776E-33   2.48111E-04    976.69       5.28048E-11   1.21245E-04   1.29182E-08   6.49385E-07   1.78134E-19    64.404       2.73728E-14    134.16       2.43824E-18   4.38642E-09
                       1.40000E-02   1.71561E-03    137.71       1.90615E-06
     4    3159.2       3.19633E-07   0.21849        16.805       3.63738E-31   4.36676E-04    991.03       1.83353E-10   1.48959E-04   1.98428E-08   1.51045E-06   1.80202E-18    68.270       7.94909E-14    147.85       2.00859E-17   1.07757E-08
                       2.03883E-02   2.83804E-03    149.90       2.71162E-06
     5    3219.1       5.25571E-07   0.30069        19.543       1.78434E-29   7.45358E-04    1004.7       5.96572E-10   1.81715E-04   3.00040E-08   3.37805E-06   1.58254E-17    72.142       2.18793E-13    162.14       1.47352E-16   2.51394E-08
                       2.91736E-02   4.57453E-03    162.49       3.80688E-06
     6    3278.9       8.46210E-07   0.40778        22.563       7.09348E-28   1.23680E-03    1017.6       1.82789E-09   2.20177E-04   4.46949E-08   7.28806E-06   1.22064E-16    76.013       5.72981E-13    177.01       9.67235E-16   5.59367E-08
                       4.10620E-02   7.19819E-03    175.46       5.27791E-06
     7    3338.7       1.33576E-06   0.54542        25.875       2.25318E-26   1.99935E-03    1029.6       5.29348E-09   2.65122E-04   6.56372E-08   1.52425E-05   8.34983E-16    79.878       1.43264E-12    192.41       5.71611E-15   1.19189E-07
                       5.69086E-02   1.10762E-02    188.76       7.23065E-06
     8    3398.5       2.06956E-06   0.72010        29.483       5.78731E-25   3.15469E-03    1041.1       1.45643E-08   3.17411E-04   9.50924E-08   3.06869E-05   5.11138E-15    83.722       3.43071E-12    208.30       3.06061E-14   2.44052E-07
                       7.77333E-02   1.66923E-02    202.36       9.79417E-06
     9    3458.3       3.15054E-06   0.93913        33.393       1.21903E-23   4.86683E-03    1052.0       3.81703E-08   3.77832E-04   1.35994E-07   5.93452E-05   2.82209E-14    87.527       7.89071E-12    224.63       1.49377E-13   4.81651E-07
                       0.10474       2.46720E-02    216.22       1.31241E-05
    10    3518.1       4.71705E-06    1.2107        37.605       2.13361E-22   7.35242E-03    1062.4       9.57099E-08   4.47229E-04   1.92101E-07   1.10591E-04   1.41579E-13    91.289       1.74771E-11    241.37       6.68570E-13   9.18593E-07
                       0.13932       3.58093E-02    230.32       1.74060E-05
    11    3577.9       6.95226E-06    1.5438        42.119       3.14115E-21   1.08922E-02    1072.3       2.30131E-07   5.26270E-04   2.68175E-07   1.99248E-04   6.49728E-13    95.046       3.73670E-11    258.47       2.75698E-12   1.69698E-06
                       0.18308       5.10965E-02    244.61       2.28598E-05
    12    3637.7       1.00952E-05    1.9484        46.935       3.93469E-20   1.58437E-02    1081.6       5.31446E-07   6.15853E-04   3.70183E-07   3.48040E-04   2.74459E-12    98.713       7.72902E-11    275.87       1.05432E-11   3.04318E-06
                       0.23785       7.17539E-02    259.06       2.97426E-05
    13    3650.0       1.07955E-05    2.0392        47.956       5.78862E-20   1.70222E-02    1083.3       6.09305E-07   6.34636E-04   3.92222E-07   3.84206E-04   3.34451E-12    99.462       8.73498E-11    279.50       1.31038E-11   3.38549E-06
                       0.25028       7.66088E-02    262.05       3.11676E-05
     1    3709.8       1.54225E-05    2.5439        53.129       6.00003E-19   2.42674E-02    1091.9       1.35362E-06   7.38104E-04   5.34670E-07   6.49948E-04   1.31085E-11    103.05       1.74599E-10    297.22       4.62615E-11   5.87966E-06
                       0.32101       0.10569        276.65       4.01329E-05
     2    3769.6       2.17417E-05    3.1444        58.592       5.52165E-18   3.40493E-02    1100.0       2.89996E-06   8.54220E-04   7.21445E-07   1.07104E-03   4.76161E-11    106.58       3.38868E-10    315.15       1.52857E-10   9.95180E-06
                       0.40755       0.14379        291.33       5.12416E-05
     3    3829.4       3.02659E-05    3.8531        64.338       4.47451E-17   4.70645E-02    1107.5       6.04391E-06   9.83672E-04   9.63998E-07   1.72271E-03   1.61510E-10    110.06       6.39775E-10    333.26       4.75384E-10   1.64477E-05
                       0.51248       0.19306        306.08       6.48972E-05
     4    3889.2       4.16301E-05    4.6826        70.358       3.20695E-16   6.41452E-02    1114.5       1.21923E-05   1.12731E-03   1.27610E-06   2.70940E-03   5.13909E-10    113.50       1.17695E-09    351.50       1.39369E-09   2.65953E-05
                       0.63856       0.25600        320.85       8.15559E-05
     5    3949.1       5.66116E-05    5.6462        76.641       2.04827E-15   8.62727E-02    1121.1       2.37111E-05   1.28610E-03   1.67418E-06   4.17322E-03   1.54429E-09    116.88       2.11292E-09    369.82       3.88521E-09   4.21319E-05
                       0.78880       0.33549        335.61       1.01730E-04
     6    4008.9       7.61523E-05    6.7575        83.177       1.17486E-14   0.11459        1127.3       4.44166E-05   1.46120E-03   2.17765E-06   6.30407E-03   4.39492E-09    120.18       3.70686E-09    388.20       1.02948E-08   6.54671E-05
                       0.96641       0.43479        350.35       1.25991E-04
     7    4068.7       1.01382E-04    8.0304        89.951       6.09788E-14   0.15042        1133.2       8.04327E-05   1.65402E-03   2.80930E-06   9.35141E-03   1.19062E-08    123.39       6.36331E-09    406.59       2.59427E-08   9.98822E-05
                        1.1748       0.55759        365.03       1.54972E-04
     8    4128.5       1.33674E-04    9.4790        96.952       2.88351E-13   0.19525        1138.9       1.41216E-04   1.86544E-03   3.59563E-06   1.36377E-02   3.07726E-08    126.48       1.07009E-08    424.95       6.29064E-08   1.49769E-04
                        1.4175       0.70796        379.64       1.89368E-04
     9    4188.3       1.74609E-04    11.117        104.16       1.25077E-12   0.25077        1144.4       2.40991E-04   2.09639E-03   4.56730E-06   1.95735E-02   7.60800E-08    129.52       1.76481E-08    443.25       1.45510E-07   2.20909E-04
                        1.6982       0.89040        394.14       2.29943E-04
    10    4248.1       2.26038E-04    12.959        111.57       5.00503E-12   0.31888        1149.7       4.00650E-04   2.34768E-03   5.75945E-06   2.76742E-02   1.80873E-07    132.48       2.85730E-08    461.45       3.20615E-07   3.20805E-04
                        2.0209        1.1098        408.52       2.77519E-04
    11    4307.9       2.90152E-04    15.017        119.16       1.85786E-11   0.40165        1154.8       6.50182E-04   2.62016E-03   7.21214E-06   3.85784E-02   4.12427E-07    135.37       4.54575E-08    479.53       6.74123E-07   4.59042E-04
                        2.3895        1.3716        422.76       3.32986E-04
    12    4367.7       3.69518E-04    17.306        126.91       6.42551E-11   0.50135        1159.7       1.03176E-03   2.91465E-03   8.97068E-06   5.30667E-02   9.12496E-07    138.16       7.11234E-08    497.47       1.35888E-06   6.47711E-04
                        2.8080        1.6814        436.84       3.97296E-04
    13    4380.0       3.86558E-04    17.801        128.52       7.77941E-11   0.52374        1160.7       1.12301E-03   2.97570E-03   9.34371E-06   5.64171E-02   1.03742E-06    138.73       7.70427E-08    501.12       1.53396E-06   6.91526E-04
                        2.8993        1.7504        439.72       4.10489E-04
     1    4439.8       4.88080E-04    20.384        136.45       2.50922E-10   0.64711        1165.3       1.74003E-03   3.29776E-03   1.15337E-05   7.64654E-02   2.20237E-06    141.42       1.18370E-07    518.85       2.96237E-06   9.60979E-04
                        3.3833        2.1260        453.58       4.86674E-04
     2    4499.6       6.11614E-04    23.225        144.51       7.60341E-10   0.79311        1169.7       2.64445E-03   3.64375E-03   1.41492E-05   0.10242       4.48508E-06    144.03       1.79141E-07    536.37       5.52154E-06   1.32048E-03
                        3.9262        2.5634        467.25       5.74097E-04
     3    4559.4       7.60530E-04    26.335        152.68       2.17903E-09   0.96460        1173.9       3.94714E-03   4.01444E-03   1.72549E-05   0.13566       8.76453E-06    146.56       2.67263E-07    553.67       9.96665E-06   1.79437E-03
                        4.5321        3.0694        480.71       6.73931E-04
     4    4619.2       9.38805E-04    29.724        160.94       5.91838E-09    1.1646        1177.9       5.79291E-03   4.41049E-03   2.09222E-05   0.17780       1.65010E-05    149.01       3.93359E-07    570.73       1.74699E-05   2.41196E-03
                        5.2050        3.6508        493.96       7.87381E-04
     5    4679.1       1.15095E-03    33.402        169.28       1.53043E-08    1.3963        1181.6       8.36827E-03   4.83254E-03   2.52295E-05   0.23069       3.00321E-05    151.38       5.71563E-07    587.52       2.98048E-05   3.20814E-03
                        5.9487        4.3150        506.98       9.15698E-04
     6    4738.9       1.40224E-03    37.377        177.69       3.77177E-08    1.6629        1185.2       1.19100E-02   5.28116E-03   3.02623E-05   0.29646       5.29958E-05    153.67       8.20436E-07    604.03       4.95933E-05   4.22404E-03
                        6.7671        5.0692        519.76       1.06013E-03
     7    4798.7       1.69826E-03    41.656        186.15       8.92669E-08    1.9679        1188.6       1.67150E-02   5.75689E-03   3.61138E-05   0.37755       9.09059E-05    155.88       1.16426E-06    620.26       8.06280E-05   5.50772E-03
                        7.6638        5.9207        532.29       1.22198E-03
     8    4858.5       2.04491E-03    46.245        194.63       2.01454E-07    2.3147        1191.8       2.31506E-02   6.26020E-03   4.28846E-05   0.47667       1.51920E-04    158.02       1.63413E-06    636.18       1.28287E-04   7.11475E-03
                        8.6422        6.8770        544.58       1.40273E-03
     9    4918.3       2.44862E-03    51.151        203.14       4.32914E-07    2.7068        1194.8       3.16665E-02   6.79148E-03   5.06828E-05   0.59688       2.47838E-04    160.08       2.26965E-06    651.79       2.00052E-04   9.10885E-03
                        9.7057        7.9455        556.60       1.60417E-03
    10    4978.1       2.91635E-03    56.375        211.65       8.90041E-07    3.1477        1197.7       4.28067E-02   7.35106E-03   5.96240E-05   0.74155       3.95380E-04    162.07       3.12088E-06    667.08       3.06153E-04   1.15625E-02
                        10.857        9.1335        568.36       1.82772E-03
    11    5037.9       3.45555E-03    61.922        220.15       1.75771E-06    3.6411        1200.4       5.72228E-02   7.93922E-03   6.98319E-05   0.91441       6.17785E-04    163.98       4.25057E-06    682.04       4.60346E-04   1.45573E-02
                        12.099        10.448        579.84       2.07491E-03
    12    5097.7       4.07413E-03    67.791        228.62       3.34617E-06    4.1904        1202.9       7.56874E-02   8.55614E-03   8.14378E-05    1.1195       9.46775E-04    165.82       5.73695E-06    696.66       6.80855E-04   1.81847E-02
                        13.435        11.897        591.06       2.34723E-03
    13    5110.0       4.20405E-03    69.028        230.36       3.74675E-06    4.3094        1203.4       7.99031E-02   8.68265E-03   8.38655E-05    1.1650       1.02510E-03    166.20       6.06475E-06    699.61       7.33110E-04   1.89894E-02
                        13.719        12.209        593.34       2.40255E-03
     1    5169.8       4.92871E-03    75.288        238.79       6.86841E-06    4.9306        1205.8       0.10444       9.33425E-03   9.73247E-05    1.4148       1.53853E-03    167.96       8.10436E-06    713.82       1.06482E-03   2.35084E-02
                        15.170        13.827        604.22       2.70677E-03
     2    5229.6       5.75199E-03    81.870        247.17       1.22087E-05    5.6152        1208.0       0.13522       1.00148E-02   1.12497E-04    1.7069       2.27050E-03    169.65       1.07420E-05    727.69       1.52434E-03   2.88917E-02
                        16.718        15.593        614.83       3.03929E-03
     3    5289.4       6.68335E-03    88.772        255.49       2.10948E-05    6.3665        1210.2       0.17350       1.07243E-02   1.29536E-04    2.0466       3.29817E-03    171.28       1.41320E-05    741.21       2.15252E-03   3.52619E-02
                        18.366        17.514        625.17       3.40179E-03
     4    5349.2       7.73264E-03    95.989        263.74       3.55082E-05    7.1875        1212.3       0.22071       1.14626E-02   1.48602E-04    2.4394       4.72034E-03    172.85       1.84582E-05    754.37       3.00058E-03   4.27520E-02
                        20.113        19.593        635.23       3.79245E-03
     5    5409.1       8.91006E-03    103.52        271.91       5.83405E-05    8.0810        1214.2       0.27847       1.22296E-02   1.69862E-04    2.8909       6.66193E-03    174.35       2.39397E-05    767.19       4.13201E-03   5.15048E-02
                        21.962        21.838        645.02       4.21810E-03
     6    5468.9       1.02262E-02    111.35        279.99       9.37249E-05    9.0499        1216.1       0.34861       1.30251E-02   1.93485E-04    3.4073       9.27895E-03    175.79       3.08366E-05    779.66       5.62464E-03   6.16732E-02
                        23.913        24.251        654.54       4.67982E-03
     7    5528.7       1.16918E-02    119.48        287.97       1.47455E-04    10.097        1217.9       0.43316       1.38487E-02   2.19650E-04    3.9950       1.27640E-02    177.18       3.94465E-05    791.77       7.57299E-03   7.34197E-02
                        25.965        26.837        663.79       5.17884E-03
     8    5588.5       1.33181E-02    127.90        295.85       2.27506E-04    11.223        1219.6       0.53440       1.47001E-02   2.48541E-04    4.6603       1.73524E-02    178.51       5.01130E-05    803.55       1.00907E-02   8.69164E-02
                        28.119        29.600        672.77       5.71531E-03
     9    5648.3       1.51163E-02    136.60        303.61       3.44673E-04    12.432        1221.2       0.65480       1.55789E-02   2.80344E-04    5.4103       2.33284E-02    179.79       6.32390E-05    814.97       1.33131E-02   0.10234    
                        30.374        32.542        681.48       6.29086E-03
    10    5708.1       1.70980E-02    145.58        311.26       5.13338E-04    13.725        1222.7       0.79709       1.64846E-02   3.15249E-04    6.2517       3.10323E-02    181.01       7.92627E-05    826.06       1.74002E-02   0.11989    
                        32.729        35.666        689.93       6.90679E-03
    11    5767.9       1.92747E-02    154.81        318.78       7.52378E-04    15.103        1224.2       0.96425       1.74167E-02   3.53454E-04    7.1917       4.08675E-02    182.18       9.86974E-05    836.81       2.25392E-02   0.13976    
                        35.183        38.972        698.13       7.56432E-03
    12    5827.7       2.16582E-02    164.30        326.18       1.08623E-03    16.567        1225.6        1.1595       1.83746E-02   3.95162E-04    8.2374       5.33082E-02    183.31       1.22128E-04    847.23       2.89477E-02   0.16214    
                        37.735        42.463        706.06       8.26463E-03
    13    5840.0       2.21512E-02    166.27        327.69       1.16503E-03    16.877        1225.8        1.2025       1.85693E-02   4.03795E-04    8.4631       5.61382E-02    183.54       1.27119E-04    849.33       3.03954E-02   0.16698    
                        38.269        43.200        707.68       8.40621E-03
     1    5899.8       2.47980E-02    176.05        334.93       1.65428E-03    18.447        1227.1        1.4361       1.95573E-02   4.49982E-04    9.6457       7.24461E-02    184.60       1.56208E-04    859.36       3.86629E-02   0.19267    
                        40.937        46.913        715.31       9.15912E-03
     2    5959.6       2.76779E-02    186.05        342.03       2.31798E-03    20.104        1228.4        1.7056       2.05696E-02   5.00066E-04    10.950       9.26916E-02    185.62       1.90924E-04    869.07       4.88010E-02   0.22134    
                        43.697        50.811        722.70       9.95716E-03
     3    6019.4       3.08048E-02    196.26        348.99       3.20747E-03    21.850        1229.6        2.0151       2.16055E-02   5.54240E-04    12.384       0.11763        186.60       2.32140E-04    878.46       6.11444E-02   0.25322    
                        46.548        54.891        729.85       1.08013E-02
     4    6079.2       3.41907E-02    206.67        355.81       4.38594E-03    23.684        1230.7        2.3686       2.26642E-02   6.12706E-04    13.953       0.14811        187.54       2.80830E-04    887.54       7.60708E-02   0.28853    
                        49.488        59.153        736.77       1.16925E-02
     5    6139.1       3.78468E-02    217.26        362.48       5.93036E-03    25.605        1231.7        2.7707       2.37449E-02   6.75673E-04    15.666       0.18509        188.43       3.38071E-04    896.32       9.40034E-02   0.32749    
                        52.513        63.594        743.46       1.26315E-02
     6    6198.9       4.17837E-02    228.02        369.01       7.93361E-03    27.614        1232.8        3.2259       2.48467E-02   7.43391E-04    17.529       0.22967        189.29       4.05069E-04    904.80       0.11541       0.37033    
                        55.620        68.212        749.93       1.36190E-02
     7    6258.7       4.60122E-02    238.95        375.38       1.05067E-02    29.708        1233.7        3.7389       2.59689E-02   8.16110E-04    19.548       0.28304        190.11       4.83143E-04    912.99       0.14082       0.41728    
                        58.807        73.003        756.17       1.46556E-02
     8    6318.5       5.05426E-02    250.01        381.61       1.37812E-02    31.887        1234.6        4.3147       2.71104E-02   8.94157E-04    21.731       0.34653        190.90       5.73744E-04    920.90       0.17080       0.46857    
                        62.069        77.962        762.19       1.57418E-02
     9    6378.3       5.53846E-02    261.21        387.70       1.79114E-02    34.150        1235.5        4.9583       2.82704E-02   9.77680E-04    24.084       0.42161        191.65       6.78458E-04    928.52       0.20599       0.52436    
                        65.404        83.087        768.00       1.68781E-02
    10    6438.1       6.05479E-02    272.52        393.64       2.30775E-02    36.493        1236.3        5.6750       2.94478E-02   1.06641E-03    26.612       0.50987        192.37       7.99012E-04    935.88       0.24706       0.58489    
                        68.807        88.372        773.61       1.80646E-02
    11    6497.9       6.60412E-02    283.92        399.42       2.94874E-02    38.917        1237.1        6.4700       3.06418E-02   1.16040E-03    29.320       0.61306        193.05       9.37280E-04    942.98       0.29475       0.65042    
                        72.274        93.811        779.01       1.93017E-02
    12    6557.7       7.18730E-02    295.42        405.04       3.73800E-02    41.417        1237.8        7.3488       3.18513E-02   1.25992E-03    32.215       0.73305        193.71       1.09529E-03    949.82       0.34987       0.72115    
                        75.802        99.399        784.22       2.05895E-02
    13    6570.0       7.30681E-02    297.80        406.22       3.91621E-02    41.939        1238.0        7.5378       3.20952E-02   1.28034E-03    32.827       0.75946        193.84       1.12834E-03    951.19       0.36194       0.73629    
                        76.534        100.56        785.28       2.08482E-02
     1    6629.8       7.93151E-02    309.37        411.68       4.91997E-02    44.529        1238.7        8.5245       3.33219E-02   1.38699E-03    35.952       0.90237        194.46       1.31283E-03    957.73       0.42713       0.81361    
                        80.130        106.32        790.27       2.21965E-02
     2    6689.6       8.59169E-02    321.00        416.99       6.13671E-02    47.191        1239.3        9.6069       3.45619E-02   1.49974E-03    39.273        1.0667        195.06       1.52206E-03    964.03       0.50171       0.89660    
                        83.778        112.22        795.07       2.35953E-02
     3    6749.4       9.28799E-02    332.67        422.17       7.60186E-02    49.921        1240.0        10.790       3.58143E-02   1.61872E-03    42.793        1.2548        195.62       1.75851E-03    970.09       0.58666       0.98547    
                        87.473        118.24        799.71       2.50445E-02
     4    6809.2       0.10021        344.37        427.22       9.35495E-02    52.718        1240.6        12.080       3.70779E-02   1.74403E-03    46.517        1.4692        196.16       2.02486E-03    975.92       0.68301        1.0804    
                        91.211        124.38        804.18       2.65436E-02
     5    6869.1       0.10791        356.09        432.15       0.11440        55.577        1241.1        13.482       3.83518E-02   1.87580E-03    50.446        1.7123        196.68       2.32393E-03    981.53       0.79186        1.1816    
                        94.988        130.64        808.49       2.80924E-02
     6    6928.9       0.11598        367.80        436.97       0.13905        58.495        1241.7        15.001       3.96349E-02   2.01413E-03    54.583        1.9870        197.17       2.65867E-03    986.92       0.91436        1.2892    
                        98.800        137.01        812.64       2.96902E-02
     7    6988.7       0.12443        379.51        441.67       0.16803        61.469        1242.2        16.642       4.09263E-02   2.15911E-03    58.930        2.2960        197.64       3.03219E-03    992.10        1.0517        1.4036    
                        102.64        143.48        816.63       3.13365E-02
     8    7048.5       0.13326        391.19        446.24       0.20192        64.496        1242.7        18.410       4.22250E-02   2.31083E-03    63.488        2.6423        198.09       3.44777E-03    997.08        1.2051        1.5247    
                        106.51        150.03        820.47       3.30306E-02
     9    7108.3       0.14247        402.84        450.69       0.24135        67.572        1243.1        20.311       4.35299E-02   2.46935E-03    68.258        3.0289        198.52       3.90880E-03    1001.9        1.3758        1.6528    
                        110.40        156.68        824.16       3.47718E-02
    10    7168.1       0.15207        414.45        455.01       0.28699        70.693        1243.6        22.347       4.48401E-02   2.63475E-03    73.240        3.4589        198.93       4.41896E-03    1006.5        1.5653        1.7881    
                        114.31        163.39        827.71       3.65592E-02
    11    7227.9       0.16205        426.00        459.19       0.33956        73.857        1244.0        24.525       4.61546E-02   2.80707E-03    78.433        3.9355        199.32       4.98212E-03    1010.9        1.7747        1.9306    
                        118.24        170.18        831.12       3.83919E-02
    12    7287.7       0.17241        437.49        463.25       0.39986        77.058        1244.4        26.847       4.74724E-02   2.98635E-03    83.836        4.4619        199.69       5.60224E-03    1015.2        2.0055        2.0804    
                        122.17        177.03        834.39       4.02689E-02
    13    7300.0       0.17451        439.85        464.08       0.41308        77.719        1244.5        27.338       4.77360E-02   3.02288E-03    84.963        4.5752        199.77       5.73006E-03    1016.0        2.0551        2.1123    
                        122.98        178.44        835.06       4.06438E-02
     1    7373.1       0.18771        453.57        468.75       0.50000        81.635        1242.5        30.387       4.92847E-02   3.25158E-03    91.837        5.2986        199.98       6.58895E-03    1020.8        2.3715        2.3047    
                        127.74        186.79        838.67       4.29958E-02
     2    7446.2       0.20146        467.17        473.25       0.60130        85.591        1240.4        33.661       5.08306E-02   3.49045E-03    99.011        6.1067        200.16       7.54729E-03    1025.3        2.7244        2.5080    
                        132.51        195.20        842.09       4.54071E-02
     3    7482.5       0.20833        473.90        475.43       0.65698        87.571        1239.2        35.365       5.15815E-02   3.61007E-03    102.67        6.5384        200.24       8.04306E-03    1027.4        2.9125        2.6124    
                        134.88        199.39        843.74       4.65883E-02
     1    7555.6       0.22289        487.27        479.68       0.78288        91.576        1236.4        38.986       5.31199E-02   3.86395E-03    110.29        7.4843        200.37       9.16355E-03    1031.6        3.3245        2.8321    
                        139.63        207.86        846.89       4.90827E-02
     2    7628.7       0.23798        500.48        483.73       0.92749        95.605        1232.9        42.845       5.46517E-02   4.12787E-03    118.19        8.5295        200.46       1.04027E-02    1035.5        3.7793        3.0629    
                        144.37        216.36        849.86       5.16299E-02
     3    7665.0       0.24549        507.01        485.51        1.0063        97.615        1231.0        44.842       5.53937E-02   4.25965E-03    122.20        9.0840        200.50       1.10403E-02    1037.4        4.0202        3.1812    
                        146.73        220.59        851.29       5.28744E-02
     1    7738.1       0.26135        519.94        489.16        1.1824        101.67        1226.0        49.062       5.69125E-02   4.53824E-03    130.53        10.289        200.54       1.24708E-02    1041.0        4.5437        3.4288    
                        151.44        229.11        853.99       5.54943E-02
     2    7811.2       0.27773        532.69        492.54        1.3820        105.73        1219.5        53.526       5.84214E-02   4.82657E-03    139.11        11.607        200.54       1.40395E-02    1044.5        5.1163        3.6874    
                        156.12        237.62        856.54       5.81599E-02
     3    7847.5       0.28585        538.95        494.02        1.4899        107.75        1215.6        55.826       5.91505E-02   4.97014E-03    143.46        12.302        200.54       1.48430E-02    1046.1        5.4177        3.8192    
                        158.44        241.84        857.76       5.94591E-02
     1    7920.6       0.30295        551.39        497.16        1.7287        111.82        1206.1        60.660       6.06417E-02   5.27260E-03    152.43        13.800        200.49       1.66332E-02    1049.2        6.0682        4.0932    
                        163.07        250.32        860.07       6.21866E-02
     2    7993.7       0.32052        563.60        500.09        1.9962        115.88        1194.0        65.741       6.21200E-02   5.58434E-03    161.65        15.425        200.40       1.85835E-02    1052.2        6.7737        4.3775    
                        167.66        258.77        862.23       6.49523E-02
     3    8030.0       0.32921        569.59        501.50        2.1396        117.90        1187.2        68.346       6.28325E-02   5.73916E-03    166.29        16.276        200.34       1.95820E-02    1053.6        7.1430        4.5211    
                        169.93        262.95        863.28       6.62970E-02
     1    8103.1       0.34745        581.47        504.29        2.4542        121.94        1171.2        73.796       6.42889E-02   6.06425E-03    175.85        18.100        200.19       2.17893E-02    1056.3        7.9349        4.8200    
                        174.45        271.33        865.22       6.91132E-02
     2    8176.2       0.36612        593.11        506.96        2.8029        125.97        1152.5        79.491       6.57296E-02   6.39805E-03    185.62        20.061        199.98       2.41786E-02    1058.8        8.7871        5.1274    
                        178.92        279.65        867.03       7.19599E-02
     3    8212.5       0.37533        598.80        508.24        2.9887        127.96        1142.4        82.400       6.64221E-02   6.56341E-03    190.54        21.083        199.87       2.53965E-02    1060.0        9.2310        5.2787    
                        181.13        283.76        867.91       7.33406E-02
     1    8285.6       0.39460        610.08        510.70        3.3926        131.95        1119.7        88.457       6.78372E-02   6.90959E-03    200.60        23.258        199.58       2.80706E-02    1062.2        10.177        5.5953    
                        185.51        291.97        869.51       7.62261E-02
     2    8358.7       0.41426        621.12        513.03        3.8361        135.91        1094.6        94.751       6.92342E-02   7.26377E-03    210.86        25.580        199.23       3.09450E-02    1064.3        11.188        5.9176    
                        189.84        300.10        870.96       7.91344E-02
     3    8395.0       0.42392        626.50        514.15        4.0708        137.87        1081.3        97.954       6.99038E-02   7.43881E-03    215.99        26.785        199.03       3.24044E-02    1065.3        11.712        6.0759    
                        191.98        304.11        871.65       8.05416E-02
     1    8468.1       0.44410        637.16        516.29        4.5775        141.78        1053.0        104.60       7.12718E-02   7.80425E-03    226.49        29.333        198.57       3.55893E-02    1067.1        12.824        6.4073    
                        196.20        312.11        872.86       8.34772E-02
     2    8541.2       0.46461        647.56        518.32        5.1289        145.65        1022.9        111.46       7.26197E-02   8.17690E-03    237.14        32.035        198.00       3.89904E-02    1068.7        14.003        6.7435    
                        200.37        320.00        873.89       8.64278E-02
     3    8577.5       0.47468        652.63        519.30        5.4190        147.56        1007.5        114.94       7.32638E-02   8.36062E-03    242.47        33.430        197.70       4.07097E-02    1069.5        14.612        6.9089    
                        202.42        323.89        874.37       8.78522E-02
     1    8650.6       0.49563        662.65        521.15        6.0409        151.36        975.32        122.14       7.45798E-02   8.74328E-03    253.31        36.365        196.97       4.44428E-02    1070.8        15.897        7.2524    
                        206.48        331.62        875.11       9.08188E-02
     2    8723.7       0.51686        672.41        522.89        6.7123        155.11        942.21        129.54       7.58739E-02   9.13226E-03    264.27        39.458        196.13       4.84041E-02    1071.9        17.252        7.6010    
                        210.46        339.24        875.64       9.37929E-02
     3    8760.0       0.52725        677.17        523.72        7.0637        156.96        925.57        133.28       7.64903E-02   9.32360E-03    269.74        41.049        195.66       5.03989E-02    1072.4        17.949        7.7757    
                        212.42        342.99        875.85       9.52253E-02
     1    8833.1       0.54885        686.55        525.28        7.8123        160.63        891.56        140.99       7.77500E-02   9.72125E-03    280.85        44.378        194.61       5.47095E-02    1073.0        19.412        8.1325    
                        216.29        350.42        876.05       9.82046E-02
     2    8906.2       0.57066        695.67        526.72        8.6145        164.25        857.31        148.88       7.89863E-02   1.01243E-02    292.03        47.866        193.39       5.92592E-02    1073.4        20.948        8.4938    
                        220.08        357.73        876.03       0.10118    
     3    8942.5       0.58131        700.11        527.43        9.0322        166.03        840.34        152.86       7.95731E-02   1.03221E-02    297.60        49.654        192.73       6.15428E-02    1073.5        21.735        8.6744    
                        221.94        361.32        875.94       0.10262    
     1    9015.6       0.60340        708.85        528.71        9.9171        169.57        806.15        161.02       8.07728E-02   1.07324E-02    308.88        53.377        191.26       6.64558E-02    1073.3        23.379        9.0413    
                        225.61        368.43        875.34       0.10559    
     2    9088.7       0.62566        717.33        529.89        10.859        173.02        772.27        169.35       8.19478E-02   1.11471E-02    320.21        57.256        189.61       7.16155E-02    1072.7        25.096        9.4117    
                        229.20        375.40        874.29       0.10856    
     3    9125.0       0.63651        721.45        530.46        11.347        174.74        755.65        173.54       8.25034E-02   1.13503E-02    325.84        59.238        188.73       7.41971E-02    1072.4        25.972        9.5965    
                        230.97        378.82        873.61       0.10998    
     1    9198.1       0.65895        729.57        531.45        12.376        178.10        722.52        182.11       8.36399E-02   1.17708E-02    337.21        63.347        186.79       7.97291E-02    1071.2        27.797        9.9705    
                        234.44        385.58        871.96       0.11293    
     2    9271.2       0.68152        737.43        532.32        13.464        181.39        690.07        190.82       8.47504E-02   1.21947E-02    348.60        67.607        184.65       8.55121E-02    1069.6        29.693        10.347    
                        237.81        392.19        870.03       0.11588    
     3    9307.5       0.69248        741.24        532.72        14.025        183.05        674.27        195.19       8.52732E-02   1.24019E-02    354.24        69.777        183.53       8.83968E-02    1068.6        30.657        10.535    
                        239.48        395.43        868.67       0.11728    
     1    9380.6       0.71515        748.74        533.38        15.203        186.23        643.02        204.10       8.63434E-02   1.28302E-02    365.63        74.257        181.11       9.45561E-02    1066.3        32.659        10.914    
                        242.72        401.83        865.49       0.12020    
     2    9453.7       0.73788        755.99        533.89        16.441        189.36        612.68        213.12       8.73864E-02   1.32610E-02    377.00        78.881        178.50       0.10097        1063.4        34.729        11.294    
                        245.88        408.08        861.53       0.12310    
     3    9490.0       0.74891        759.51        534.11        17.078        190.96        597.98        217.64       8.78751E-02   1.34710E-02    382.63        81.228        177.15       0.10416        1061.6        35.779        11.483    
                        247.43        411.14        859.21       0.12448    
     1    9563.1       0.77167        766.40        534.37        18.407        193.98        569.09        226.83       8.88760E-02   1.39047E-02    393.95        86.058        174.26       0.11094        1057.4        37.950        11.865    
                        250.48        417.17        853.91       0.12735    
     2    9636.2       0.79444        773.06        534.44        19.796        196.95        541.23        236.11       8.98484E-02   1.43398E-02    405.23        91.021        171.21       0.11798        1052.0        40.186        12.246    
                        253.46        423.04        847.91       0.13019    
     3    9672.5       0.80545        776.29        534.43        20.508        198.45        527.78        240.74       9.03015E-02   1.45515E-02    410.80        93.533        169.64       0.12147        1048.9        41.317        12.435    
                        254.91        425.91        844.87       0.13154    
     1    9745.6       0.82818        782.60        534.20        21.989        201.31        501.48        250.14       9.12300E-02   1.49881E-02    422.00        98.686        166.36       0.12887        1042.2        43.648        12.816    
                        257.80        431.56        838.03       0.13434    
     2    9818.7       0.85086        788.69        533.74        23.529        204.13        476.95        259.61       9.21288E-02   1.54253E-02    433.12        103.96        162.93       0.13652        1034.7        46.040        13.196    
                        260.65        437.06        830.56       0.13712    
     3    9855.0       0.86181        791.63        533.45        24.315        205.52        465.01        264.32       9.25448E-02   1.56375E-02    438.61        106.62        161.18       0.14030        1030.6        47.247        13.384    
                        262.03        439.74        826.83       0.13843    
     1    9928.1       0.88438        797.37        532.62        25.944        208.24        441.81        273.87       9.33975E-02   1.60747E-02    449.62        112.06        157.57       0.14830        1021.8        49.725        13.762    
                        264.77        445.02        818.26       0.14116    
     2    10001.       0.90686        802.88        531.52        27.631        210.89        419.47        283.46       9.42190E-02   1.65115E-02    460.53        117.61        153.85       0.15654        1012.0        52.259        14.138    
                        267.35        450.14        809.08       0.14385    
     3    10038.       0.91770        805.54        530.90        28.490        212.17        408.62        288.23       9.45961E-02   1.67232E-02    465.90        120.41        151.97       0.16061        1006.8        53.534        14.325    
                        268.55        452.63        804.34       0.14513    
     1    10111.       0.94000        810.72        529.37        30.261        214.72        387.63        297.86       9.53694E-02   1.71587E-02    476.66        126.10        148.12       0.16919        995.60        56.146        14.698    
                        270.95        457.53        794.08       0.14777    
     2    10184.       0.96217        815.67        527.52        32.088        217.21        367.55        307.51       9.61098E-02   1.75930E-02    487.31        131.89        144.21       0.17799        983.51        58.806        15.068    
                        273.24        462.28        783.09       0.15037    
     3    10220.       0.97283        818.05        526.51        33.016        218.43        357.83        312.29       9.64462E-02   1.78029E-02    492.54        134.80        142.25       0.18232        977.19        60.142        15.251    
                        274.35        464.59        777.43       0.15160    
     1    10293.       0.99476        822.65        524.18        34.923        220.81        339.09        321.95       9.71359E-02   1.82346E-02    503.01        140.71        138.26       0.19144        963.81        62.871        15.617    
                        276.53        469.12        765.48       0.15415    
     2    10366.        1.0165        827.03        521.49        36.881        223.13        321.23        331.60       9.77911E-02   1.86642E-02    513.35        146.70        134.24       0.20077        949.59        65.641        15.980    
                        278.64        473.49        752.92       0.15665    
     3    10402.        1.0270        829.11        520.06        37.873        224.21        312.61        336.38       9.80847E-02   1.88715E-02    518.43        149.70        132.24       0.20535        942.26        67.030        16.159    
                        279.66        475.62        746.49       0.15783    
     1    10476.        1.0484        833.13        516.84        39.905        226.40        296.03        346.00       9.86865E-02   1.92973E-02    528.57        155.79        128.20       0.21498        926.89        69.858        16.516    
                        281.64        479.78        733.10       0.16026    
     2    10549.        1.0697        836.90        513.26        41.985        228.45        280.26        355.59       9.92519E-02   1.97202E-02    538.55        161.93        124.17       0.22479        910.82        72.720        16.869    
                        283.55        483.78        719.22       0.16266    
     3    10585.        1.0799        838.68        511.37        43.035        229.38        272.66        360.34       9.95005E-02   1.99237E-02    543.46        165.00        122.16       0.22960        902.60        74.152        17.044    
                        284.48        485.73        712.18       0.16378    
     1    10658.        1.1008        842.07        507.23        45.181        231.28        258.07        369.87       0.10001       2.03417E-02    553.22        171.23        118.15       0.23969        885.57        77.062        17.391    
                        286.27        489.52        697.65       0.16610    
     2    10731.        1.1215        845.20        502.72        47.370        233.08        244.22        379.34       0.10048       2.07560E-02    562.83        177.49        114.18       0.24995        867.97        79.999        17.733    
                        287.97        493.15        682.76       0.16838    
     3    10768.        1.1313        846.66        500.37        48.472        233.92        237.55        384.03       0.10068       2.09549E-02    567.54        180.61        112.21       0.25497        859.06        81.465        17.902    
                        288.79        494.92        675.26       0.16944    
     1    10841.        1.1516        849.37        495.31        50.719        235.61        224.76        393.42       0.10110       2.13631E-02    576.90        186.93        108.30       0.26547        840.73        84.438        18.237    
                        290.35        498.35        659.93       0.17164    
     2    10914.        1.1716        851.79        489.90        53.002        237.26        212.64        402.75       0.10147       2.17669E-02    586.10        193.27        104.44       0.27612        821.99        87.431        18.568    
                        291.82        501.58        644.35       0.17379    
     3    10950.        1.1812        852.89        487.10        54.149        238.05        206.81        407.35       0.10162       2.19602E-02    590.61        196.42        102.54       0.28131        812.56        88.923        18.730    
                        292.53        503.19        636.55       0.17478    
     1    11023.        1.2008        854.86        481.16        56.483        239.58        195.64        416.56       0.10193       2.23569E-02    599.54        202.79        98.771       0.29217        793.32        91.941        19.053    
                        293.85        506.20        620.70       0.17685    
     2    11096.        1.2200        856.50        474.89        58.847        241.03        185.06        425.68       0.10220       2.27485E-02    608.31        209.17        95.076       0.30316        773.82        94.973        19.370    
                        295.07        509.06        604.73       0.17886    
     3    11132.        1.2292        857.21        471.68        60.032        241.71        179.96        430.18       0.10230       2.29354E-02    612.60        212.34        93.262       0.30852        764.07        96.482        19.526    
                        295.66        510.52        596.78       0.17979    
     1    11206.        1.2480        858.36        464.94        62.437        243.03        170.22        439.16       0.10251       2.33187E-02    621.09        218.72        89.682       0.31968        744.29        99.529        19.835    
                        296.73        513.12        580.71       0.18171    
     2    11279.        1.2665        859.14        457.89        64.866        244.28        161.00        448.04       0.10267       2.36964E-02    629.40        225.09        86.186       0.33096        724.40        102.58        20.138    
                        297.70        515.59        564.63       0.18358    
     3    11315.        1.2752        859.41        454.32        66.081        244.88        156.57        452.42       0.10272       2.38760E-02    633.46        228.25        84.474       0.33644        714.52        104.10        20.287    
                        298.15        516.86        556.66       0.18443    
     1    11388.        1.2932        859.65        446.87        68.542        246.01        148.09        461.14       0.10282       2.42444E-02    641.49        234.61        81.107       0.34786        694.56        107.16        20.581    
                        298.95        519.08        540.63       0.18621    
     2    11461.        1.3108        859.47        439.17        71.020        247.06        140.06        469.74       0.10287       2.46064E-02    649.33        240.94        77.831       0.35936        674.62        110.21        20.869    
                        299.64        521.18        524.68       0.18792    
     3    11498.        1.3191        859.33        435.28        72.258        247.56        136.20        473.98       0.10287       2.47779E-02    653.16        244.08        76.231       0.36494        664.75        111.73        21.010    
                        299.95        522.21        516.80       0.18870    
     1    11571.        1.3361        858.56        427.25        74.759        248.48        128.83        482.40       0.10286       2.51297E-02    660.70        250.38        73.094       0.37655        644.93        114.79        21.289    
                        300.46        524.06        501.03       0.19031    
     2    11644.        1.3527        857.43        419.02        77.271        249.32        121.85        490.71       0.10280       2.54745E-02    668.05        256.64        70.051       0.38823        625.23        117.84        21.561    
                        300.84        525.73        485.42       0.19186    
     3    11680.        1.3606        856.76        414.90        78.523        249.71        118.49        494.79       0.10274       2.56372E-02    671.64        259.73        68.567       0.39388        615.52        119.35        21.695    
                        301.00        526.49        477.73       0.19255    
     1    11753.        1.3766        855.06        406.42        81.049        250.41        112.08        502.90       0.10262       2.59707E-02    678.68        265.94        65.666       0.40563        596.10        122.39        21.957    
                        301.19        527.90        462.40       0.19400    
     2    11826.        1.3922        853.09        397.80        83.579        251.02        106.02        510.87       0.10245       2.62966E-02    685.52        272.10        62.861       0.41743        576.89        125.41        22.212    
                        301.25        529.15        447.30       0.19537    
     3    11862.        1.3995        851.96        393.49        84.839        251.30        103.09        514.78       0.10234       2.64497E-02    688.85        275.14        61.495       0.42312        567.46        126.92        22.337    
                        301.25        529.72        439.88       0.19598    
     1    11936.        1.4145        849.28        384.70        87.373        251.76        97.497        522.54       0.10211       2.67635E-02    695.37        281.23        58.832       0.43495        548.64        129.92        22.583    
                        301.10        530.68        425.14       0.19725    
     2    12009.        1.4291        846.06        375.82        89.907        252.13        92.200        530.15       0.10183       2.70689E-02    701.69        287.25        56.262       0.44680        530.13        132.90        22.821    
                        300.82        531.36        410.67       0.19844    
     3    12045.        1.4358        844.15        371.41        91.167        252.28        89.615        533.89       0.10166       2.72117E-02    704.75        290.23        55.012       0.45251        521.06        134.41        22.937    
                        300.64        531.52        403.58       0.19896    
     1    12118.        1.4497        839.99        362.44        93.696        252.49        84.694        541.28       0.10132       2.75042E-02    710.73        296.16        52.581       0.46437        503.03        137.36        23.164    
                        300.14        531.74        389.53       0.20005    
     2    12191.        1.4630        835.39        353.43        96.219        252.59        80.074        548.52       0.10093       2.77877E-02    716.48        302.04        50.241       0.47623        485.35        140.29        23.384    
                        299.50        531.65        375.78       0.20105    
     3    12228.        1.4692        832.96        348.97        97.471        252.61        77.871        552.05       0.10071       2.79194E-02    719.25        304.93        49.103       0.48192        476.71        141.79        23.491    
                        299.14        531.45        369.07       0.20148    
     1    12301.        1.4818        827.75        339.95        99.981        252.55        73.644        559.05       0.10026       2.81891E-02    724.66        310.69        46.895       0.49376        459.58        144.69        23.699    
                        298.27        530.98        355.79       0.20236    
     2    12374.        1.4940        822.06        330.94        102.48        252.37        69.655        565.89       9.97749E-02   2.84493E-02    729.82        316.38        44.774       0.50556        442.85        147.58        23.899    
                        297.26        530.31        342.83       0.20317    
     3    12410.        1.4995        819.07        326.49        103.72        252.25        67.751        569.23       9.95028E-02   2.85692E-02    732.30        319.18        43.743       0.51122        434.69        149.06        23.997    
                        296.72        529.88        336.51       0.20350    
     1    12483.        1.5109        812.68        317.53        106.19        251.90        64.096        575.81       9.89528E-02   2.88148E-02    737.10        324.75        41.747       0.52297        418.55        151.91        24.185    
                        295.48        528.82        324.05       0.20419    
     2    12556.        1.5217        805.87        308.62        108.66        251.43        60.648        582.23       9.83634E-02   2.90503E-02    741.65        330.24        39.832       0.53467        402.83        154.74        24.365    
                        294.10        527.48        311.92       0.20480    
     3    12592.        1.5266        802.34        304.23        109.87        251.16        59.002        585.35       9.80428E-02   2.91578E-02    743.82        332.93        38.902       0.54026        395.18        156.19        24.452    
                        293.37        526.73        306.02       0.20502    
     1    12666.        1.5366        794.89        295.42        112.31        250.52        55.836        591.50       9.73962E-02   2.93779E-02    747.98        338.29        37.105       0.55188        380.08        158.96        24.620    
                        291.76        524.99        294.39       0.20551    
     2    12739.        1.5461        787.02        286.70        114.72        249.75        52.847        597.47       9.67126E-02   2.95875E-02    751.87        343.56        35.382       0.56342        365.41        161.72        24.778    
                        290.00        523.01        283.11       0.20591    
     3    12775.        1.5503        782.98        282.42        115.91        249.33        51.421        600.37       9.63466E-02   2.96820E-02    753.70        346.14        34.547       0.56893        358.28        163.12        24.855    
                        289.09        521.94        277.62       0.20604    
     1    12848.        1.5589        774.52        273.85        118.29        248.38        48.675        606.05       9.56097E-02   2.98754E-02    757.18        351.27        32.933       0.58035        344.24        165.83        25.000    
                        287.12        519.56        266.84       0.20631    
     2    12921.        1.5669        765.69        265.40        120.64        247.30        46.082        611.55       9.48386E-02   3.00580E-02    760.38        356.30        31.388       0.59169        330.63        168.52        25.136    
                        285.01        516.92        256.39       0.20650    
     3    12958.        1.5703        761.18        261.26        121.80        246.73        44.845        614.21       9.44307E-02   3.01389E-02    761.86        358.76        30.640       0.59708        324.02        169.85        25.201    
                        283.92        515.52        251.31       0.20653    
     1    13031.        1.5774        751.81        252.99        124.11        245.47        42.462        619.41       9.36107E-02   3.03047E-02    764.62        363.63        29.195       0.60827        311.04        172.49        25.323    
                        281.59        512.49        241.36       0.20659    
     2    13104.        1.5839        742.10        244.87        126.39        244.08        40.210        624.40       9.27597E-02   3.04592E-02    767.08        368.40        27.815       0.61935        298.48        175.10        25.436    
                        279.14        509.20        231.73       0.20657    
     3    13140.        1.5867        737.17        240.90        127.51        243.36        39.136        626.81       9.23136E-02   3.05262E-02    768.19        370.73        27.145       0.62460        292.39        176.38        25.489    
                        277.88        507.49        227.06       0.20650    
     1    13213.        1.5922        727.00        232.99        129.75        241.79        37.066        631.49       9.14185E-02   3.06635E-02    770.19        375.34        25.856       0.63550        280.45        178.94        25.587    
                        275.23        503.81        217.91       0.20635    
     2    13286.        1.5972        716.54        225.24        131.95        240.11        35.108        635.96       9.04957E-02   3.07891E-02    771.88        379.84        24.624       0.64627        268.91        181.45        25.674    
                        272.45        499.89        209.08       0.20612    
     3    13322.        1.5991        711.25        221.45        133.03        239.23        34.176        638.10       9.00157E-02   3.08418E-02    772.60        382.03        24.028       0.65136        263.32        182.67        25.715    
                        271.04        497.87        204.79       0.20595    
     1    13396.        1.6031        700.39        213.94        135.18        237.37        32.376        642.24       8.90539E-02   3.09499E-02    773.81        386.35        22.879       0.66193        252.38        185.11        25.787    
                        268.09        493.58        196.42       0.20559    
     2    13469.        1.6064        689.30        206.60        137.29        235.40        30.674        646.14       8.80679E-02   3.10461E-02    774.69        390.56        21.783       0.67234        241.82        187.51        25.849    
                        265.02        489.06        188.34       0.20516    
     3    13505.        1.6076        683.72        203.02        138.33        234.38        29.863        648.00       8.75581E-02   3.10841E-02    775.01        392.60        21.252       0.67725        236.71        188.68        25.877    
                        263.47        486.75        184.42       0.20488    
     1    13578.        1.6100        672.31        195.93        140.38        232.24        28.297        651.56       8.65384E-02   3.11625E-02    775.38        396.62        20.230       0.68743        226.72        191.02        25.923    
                        260.25        481.89        176.78       0.20433    
     2    13651.        1.6117        660.71        189.01        142.40        229.99        26.817        654.88       8.54981E-02   3.12290E-02    775.43        400.51        19.257       0.69744        217.10        193.30        25.959    
                        256.92        476.81        169.41       0.20369    
     3    13688.        1.6121        654.90        185.64        143.39        228.84        26.112        656.44       8.49630E-02   3.12523E-02    775.34        402.40        18.785       0.70213        212.45        194.41        25.973    
                        255.25        474.22        165.85       0.20332    
     1    13761.        1.6128        643.07        178.98        145.34        226.44        24.749        659.39       8.38943E-02   3.13008E-02    774.88        406.10        17.878       0.71188        203.37        196.59        25.992    
                        251.79        468.84        158.89       0.20257    
     2    13834.        1.6129        631.10        172.50        147.25        223.93        23.459        662.08       8.28086E-02   3.13372E-02    774.05        409.67        17.014       0.72144        194.63        198.72        26.001    
                        248.24        463.26        152.20       0.20174    
     3    13870.        1.6125        625.13        169.35        148.18        222.66        22.846        663.33       8.22527E-02   3.13458E-02    773.51        411.39        16.596       0.72591        190.41        199.71        26.001    
                        246.46        460.43        148.97       0.20127    
     1    13943.        1.6116        613.00        163.13        150.03        220.02        21.659        665.64       8.11439E-02   3.13643E-02    772.23        414.75        15.792       0.73517        182.17        201.74        25.993    
                        242.81        454.57        142.65       0.20033    
     2    14016.        1.6101        600.79        157.09        151.82        217.29        20.536        667.69       8.00216E-02   3.13710E-02    770.53        417.97        15.027       0.74423        174.25        203.62        25.974    
                        239.08        448.54        136.58       0.19932    
     3    14052.        1.6088        594.71        154.16        152.70        215.91        20.002        668.61       7.94491E-02   3.13648E-02    769.57        419.52        14.656       0.74845        170.43        204.44        25.961    
                        237.21        445.50        133.65       0.19876    
     1    14126.        1.6063        582.41        148.38        154.43        213.06        18.967        670.26       7.83090E-02   3.13537E-02    767.33        422.52        13.944       0.75719        162.98        206.18        25.925    
                        233.39        439.24        127.94       0.19764    
     2    14199.        1.6032        570.08        142.77        156.11        210.14        17.989        671.63       7.71588E-02   3.13308E-02    764.68        425.37        13.267       0.76571        155.82        207.82        25.877    
                        229.52        432.83        122.45       0.19645    
     3    14235.        1.6012        563.95        140.05        156.93        208.66        17.523        672.22       7.65740E-02   3.13102E-02    763.31        426.73        12.939       0.76965        152.37        208.53        25.851    
                        227.59        429.61        119.80       0.19581    
     1    14308.        1.5971        551.60        134.70        158.53        205.63        16.622        673.18       7.54111E-02   3.12699E-02    760.41        429.36        12.310       0.77783        145.65        210.05        25.787    
                        223.65        423.00        114.63       0.19452    
     2    14381.        1.5924        539.26        129.51        160.08        202.54        15.769        673.86       7.42412E-02   3.12180E-02    757.11        431.83        11.711       0.78576        139.20        211.47        25.712    
                        219.67        416.28        109.68       0.19317    
     3    14418.        1.5896        533.14        127.00        160.85        200.98        15.363        674.09       7.36482E-02   3.11833E-02    755.36        433.00        11.420       0.78941        136.09        212.13        25.672    
                        217.69        412.91        107.29       0.19245    
     1    14491.        1.5840        520.84        122.07        162.32        197.81        14.576        674.35       7.24704E-02   3.11144E-02    751.53        435.22        10.864       0.79698        130.04        213.45        25.580    
                        213.67        406.04        102.63       0.19101    
     2    14564.        1.5777        508.59        117.29        163.74        194.58        13.832        674.33       7.12888E-02   3.10344E-02    747.24        437.29        10.335       0.80429        124.24        214.69        25.479    
                        209.62        399.08        98.167       0.18951    
     3    14600.        1.5742        502.53        114.98        164.46        192.96        13.478        674.21       7.06914E-02   3.09860E-02    744.98        438.26        10.079       0.80762        121.45        215.27        25.425    
                        207.61        395.59        96.012       0.18872    
