  STEP   TOTAL TIME             LOCATION OF OBSERVATION POINTS (K,I,J)
                      1  32  40     1  19  47     1  21  39     1  28  67     1  25  51     1  13  22     1  20  60     1  31  23     1  34  29     1  19  56     1  23  65     1  22  29     1  35  46     1  18  35     1   6  57     1  31  50
                      1   9  43     1  22  51     1  12  31     1  32  31
     1    14.932       3.36615E-36   1.03811E-31   1.22619E-22    0.0000       1.10348E-37   7.72027E-14   4.20390E-45   1.00084E-17   1.90914E-27   2.90041E-41    0.0000       1.54337E-12    0.0000       3.07546E-20    0.0000       1.26117E-44
                       1.33534E-40   1.55439E-35   3.55241E-24   7.36465E-27
     2    29.864       3.36683E-36   1.03983E-31   1.24438E-22    0.0000       1.10412E-37   9.05327E-14    0.0000       1.07619E-17   1.91956E-27   2.96557E-41    0.0000       1.77341E-12    0.0000       3.16490E-20    0.0000        0.0000    
                       1.34797E-40   1.55564E-35   3.62792E-24   7.40586E-27
     3    44.796       3.36751E-36   1.04156E-31   1.26295E-22    0.0000       1.10475E-37   1.07530E-13    0.0000       1.16090E-17   1.93007E-27   3.07137E-41    0.0000       2.05747E-12    0.0000       3.25811E-20    0.0000        0.0000    
                       1.36014E-40   1.55689E-35   3.70609E-24   7.44742E-27
     4    59.728       3.36819E-36   1.04329E-31   1.28192E-22    0.0000       1.10539E-37   1.30234E-13    0.0000       1.25686E-17   1.94066E-27   2.79447E-41    0.0000       2.41906E-12    0.0000       3.35531E-20    0.0000        0.0000    
                       1.34136E-40   1.55814E-35   3.78706E-24   7.48933E-27
     5    74.660       3.36887E-36   1.04502E-31   1.30129E-22    0.0000       1.10606E-37   1.64625E-13    0.0000       1.36660E-17   1.95135E-27   2.59338E-41    0.0000       2.90839E-12    0.0000       3.45674E-20    0.0000        0.0000    
                       1.36150E-40   1.55940E-35   3.87098E-24   7.53160E-27
     6    89.592       3.36955E-36   1.04676E-31   1.32107E-22    0.0000       1.10668E-37   2.37546E-13    0.0000       1.49400E-17   1.96213E-27   2.87210E-41    0.0000       3.66496E-12    0.0000       3.56266E-20    0.0000        0.0000    
                       1.36423E-40   1.56065E-35   3.95801E-24   7.57423E-27
     7    104.52       3.37023E-36   1.04851E-31   1.34129E-22    0.0000       1.10731E-37   4.95851E-13    0.0000       1.64697E-17   1.97300E-27   3.09757E-41    0.0000       5.16180E-12    0.0000       3.67337E-20    0.0000        0.0000    
                       1.39391E-40   1.56191E-35   4.04835E-24   7.61724E-27
     8    119.46       3.37091E-36   1.05025E-31   1.36195E-22    0.0000       1.10794E-37   1.77084E-12    0.0000       1.85228E-17   1.98397E-27   3.28548E-41    0.0000       9.17057E-12    0.0000       3.78917E-20    0.0000        0.0000    
                       1.39632E-40   1.56317E-35   4.14216E-24   7.66061E-27
     9    134.39       3.37159E-36   1.05201E-31   1.38307E-22    0.0000       1.10858E-37   8.51516E-12    0.0000       2.24251E-17   1.99503E-27   3.44551E-41    0.0000       2.25347E-11    0.0000       3.91040E-20    0.0000        0.0000    
                       1.37818E-40   1.56443E-35   4.23967E-24   7.70437E-27
    10    149.32       3.37227E-36   1.05376E-31   1.40466E-22    0.0000       1.10925E-37   4.16884E-11    0.0000       3.57648E-17   2.00619E-27   3.58396E-41    0.0000       7.12565E-11    0.0000       4.03745E-20    0.0000        0.0000    
                       1.34400E-40   1.56569E-35   4.34111E-24   7.74851E-27
    11    164.25       3.37295E-36   1.05552E-31   1.42674E-22    0.0000       1.10992E-37   1.85790E-10    0.0000       1.03483E-16   2.01744E-27   3.70559E-41    0.0000       2.48308E-10    0.0000       4.17072E-20    0.0000        0.0000    
                       1.38960E-40   1.56695E-35   4.44671E-24   7.79303E-27
    12    179.18       3.37364E-36   1.05728E-31   1.44931E-22    0.0000       1.11056E-37   7.35685E-10    0.0000       4.87596E-16   2.02880E-27   3.81335E-41    0.0000       8.58553E-10    0.0000       4.31071E-20    0.0000        0.0000    
                       1.43003E-40   1.56821E-35   4.55675E-24   7.83796E-27
    13    194.12       3.37432E-36   1.05905E-31   1.47241E-22    0.0000       1.11117E-37   2.59914E-09    0.0000       2.59501E-15   2.04026E-27   3.90976E-41    0.0000       2.81536E-09    0.0000       4.45802E-20    0.0000        0.0000    
                       1.46618E-40   1.56948E-35   4.67154E-24   7.88328E-27
    14    209.05       3.37500E-36   1.06082E-31   1.49604E-22    0.0000       1.11178E-37   8.29509E-09    0.0000       1.30512E-14   2.05181E-27   3.99664E-41    0.0000       8.63459E-09    0.0000       4.61372E-20    0.0000        0.0000    
                       1.49876E-40   1.57074E-35   4.79148E-24   7.92900E-27
    15    223.98       3.37569E-36   1.06260E-31   1.52022E-22    0.0000       1.11239E-37   2.42177E-08    0.0000       5.91940E-14   2.06348E-27   4.07540E-41    0.0000       2.47374E-08    0.0000       4.78081E-20    0.0000        0.0000    
                       1.52828E-40   1.57201E-35   4.91724E-24   7.97514E-27
    16    238.91       3.37637E-36   1.06438E-31   1.54497E-22    0.0000       1.11301E-37   6.53535E-08    0.0000       2.41203E-13   2.07525E-27   4.14728E-41    0.0000       6.64300E-08    0.0000       4.97155E-20    0.0000        0.0000    
                       1.55522E-40   1.57328E-35   5.05110E-24   8.02169E-27
    17    253.84       3.37705E-36   1.06616E-31   1.57031E-22    0.0000       1.11371E-37   1.64410E-07    0.0000       8.90319E-13   2.08712E-27   4.21300E-41    0.0000       1.68036E-07    0.0000       5.24453E-20    0.0000        0.0000    
                       1.57988E-40   1.57455E-35   5.20413E-24   8.06867E-27
    18    268.78       3.37773E-36   1.06795E-31   1.59627E-22    0.0000       1.11431E-37   3.88372E-07    0.0000       3.00762E-12   2.09911E-27   4.27354E-41    0.0000       4.02435E-07    0.0000       5.89168E-20    0.0000        0.0000    
                       1.60255E-40   1.57582E-35   5.43871E-24   8.11607E-27
    19    283.71       3.37841E-36   1.06975E-31   1.62290E-22    0.0000       1.11492E-37   8.69259E-07    0.0000       9.38425E-12   2.11120E-27   4.32931E-41    0.0000       9.17001E-07    0.0000       8.42156E-20    0.0000        0.0000    
                       1.62350E-40   1.57710E-35   6.12012E-24   8.16391E-27
    20    298.64       3.37910E-36   1.07154E-31   1.65034E-22    0.0000       1.11555E-37   1.85480E-06    0.0000       2.72563E-11   2.12342E-27   4.38116E-41    0.0000       1.99691E-06    0.0000       2.06969E-19    0.0000        0.0000    
                       1.64292E-40   1.57837E-35   9.41732E-24   8.21220E-27
    21    313.57       3.37979E-36   1.07334E-31   1.67917E-22    0.0000       1.11617E-37   3.78759E-06    0.0000       7.41927E-11   2.13581E-27   4.42922E-41    0.0000       4.17265E-06    0.0000       8.38105E-19    0.0000        0.0000    
                       1.66097E-40   1.57965E-35   2.82079E-23   8.26099E-27
    22    328.50       3.38047E-36   1.07515E-31   1.71204E-22    0.0000       1.11685E-37   7.42528E-06    0.0000       1.90534E-10   2.14846E-27   4.47407E-41    0.0000       8.39643E-06    0.0000       4.05499E-18    0.0000        0.0000    
                       1.67779E-40   1.58093E-35   1.39019E-22   8.31054E-27
    23    343.44       3.38116E-36   1.07696E-31   1.76126E-22    0.0000       1.11749E-37   1.40157E-05    0.0000       4.64495E-10   2.11787E-27   4.51610E-41    0.0000       1.63232E-05    0.0000       1.95761E-17    0.0000        0.0000    
                       1.69351E-40   1.58221E-35   7.76226E-22   8.36216E-27
    24    358.37       3.38184E-36   1.07877E-31   1.88487E-22    0.0000       1.11810E-37   2.55496E-05    0.0000       1.08005E-09  -1.34452E-26   4.55534E-41    0.0000       3.07471E-05    0.0000       8.92034E-17    0.0000        0.0000    
                       1.70824E-40   1.58349E-35   4.19834E-21   8.42267E-27
    25    373.30       3.38252E-36   1.08059E-31   2.35937E-22    0.0000       1.11877E-37   4.53234E-05    0.0000       2.40419E-09   2.03720E-26   4.59220E-41    0.0000       5.62610E-05    0.0000       3.79064E-16    0.0000        0.0000    
                       1.72207E-40   1.58477E-35   2.11529E-20   8.52705E-27
    26    388.23       3.38321E-36   1.08241E-31   4.50540E-22    0.0000       1.11947E-37   7.82651E-05    0.0000       5.13955E-09  -1.43456E-25   4.62681E-41    0.0000       1.00234E-04    0.0000       1.50251E-15    0.0000        0.0000    
                       1.73507E-40   1.58606E-35   9.87537E-20   8.85265E-27
    27    403.16       3.38390E-36   1.08424E-31   1.46551E-21    0.0000       1.12015E-37   1.31598E-04    0.0000       1.05813E-08   1.22186E-25   4.65960E-41    0.0000       1.74233E-04    0.0000       5.57425E-15    0.0000        0.0000    
                       1.74732E-40   1.58734E-35   4.28478E-19   1.02930E-26
    28    418.10       3.38458E-36   1.08607E-31   6.30309E-21    0.0000       1.12077E-37   2.15679E-04    0.0000       2.10538E-08  -6.43053E-25   4.69043E-41    0.0000       2.96055E-04    0.0000       1.94359E-14    0.0000        0.0000    
                       1.75890E-40   1.58863E-35   1.73602E-18   1.72527E-26
    29    433.03       3.38527E-36   1.08791E-31   2.86936E-20    0.0000       1.12136E-37   3.45008E-04    0.0000       4.06338E-08   9.54316E-25   4.71957E-41    0.0000       4.92551E-04  -2.35979E-41   6.39499E-14    0.0000        0.0000    
                       1.65184E-40   1.58992E-35   6.59982E-18   5.12352E-26
    30    447.96       3.38446E-36   1.08975E-31   1.27042E-19    0.0000       1.12199E-37   5.39352E-04    0.0000       7.62170E-08  -1.24600E-24   4.74718E-41    0.0000       8.03586E-04  -3.61851E-38   1.99325E-13    0.0000        0.0000    
                       5.93394E-41   1.59121E-35   2.36491E-17   2.18176E-25
    31    462.89       2.41652E-36   1.09159E-31   5.34436E-19    0.0000       1.12268E-37   8.24598E-04    0.0000       1.39134E-07   6.51517E-24   4.77324E-41    0.0000       1.28745E-03  -2.91995E-37   5.90632E-13    0.0000        0.0000    
                      -1.31266E-39   1.59250E-35   8.02011E-17   1.02136E-24
    32    477.82      -2.79949E-36   1.09344E-31   2.12673E-18    0.0000       1.12336E-37   1.23511E-03    0.0000       2.47509E-07   4.78227E-24   4.79819E-41    0.0000       2.02804E-03  -1.40299E-36   1.66923E-12    0.0000        0.0000    
                      -2.63227E-35   1.59379E-35   2.58372E-16   4.71170E-24
    33    492.76      -1.45344E-29   1.09529E-31   8.01349E-18    0.0000       1.12406E-37   1.81525E-03    0.0000       4.29614E-07   1.23974E-23   4.82173E-41    0.0000       3.14428E-03  -5.22043E-36   4.51305E-12    0.0000        0.0000    
                      -1.12520E-34   1.59508E-35   7.93361E-16   2.07737E-23
    34    507.69      -6.07666E-29   1.09715E-31   2.86587E-17    0.0000       1.12469E-37   2.62143E-03    0.0000       7.28580E-07   6.08439E-23   4.84415E-41    0.0000       4.80347E-03  -1.66001E-35   1.17054E-11    0.0000        0.0000    
                      -3.57832E-34   1.59638E-35   2.32909E-15   8.69934E-23
    35    522.62      -1.88806E-28   1.09901E-31   9.75397E-17    0.0000      -1.49307E-35   3.72439E-03    0.0000       1.21003E-06   2.72125E-22   4.86559E-41    0.0000       7.23792E-03  -4.73686E-35   2.92002E-11    0.0000        0.0000    
                      -9.93431E-34   1.59768E-35   6.55541E-15   3.46146E-22
    36    537.55      -5.04118E-28   1.10088E-31   3.16766E-16    0.0000      -1.04203E-29   5.21165E-03    0.0000       1.97503E-06   1.06770E-21   4.88591E-41    0.0000       1.07652E-02  -1.24726E-34   7.02254E-11    0.0000      -3.54131E-35
                      -2.52180E-33   1.59898E-35   1.77342E-14   1.31146E-21
    37    552.48      -1.24229E-27   1.10275E-31   9.84042E-16    0.0000      -5.96698E-29   7.19016E-03    0.0000       3.16648E-06   3.80928E-21   4.90539E-41    0.0000       1.58143E-02  -3.08333E-34   1.63177E-10    0.0000      -2.66522E-34
                      -5.98672E-33   1.59988E-35   4.62203E-14   4.74263E-21
    38    567.42      -3.05473E-27   1.10463E-31   2.93105E-15    0.0000      -2.20691E-28   9.78910E-03    0.0000       4.98718E-06   1.27071E-20   4.92388E-41    0.0000       2.29696E-02  -7.23965E-34   3.67088E-10    0.0000      -1.21898E-33
                      -1.34669E-32  -5.90915E-35   1.16303E-13   1.64086E-20
    39    582.35      -7.34488E-27   1.10651E-31   8.38924E-15    0.0000      -6.67824E-28   1.31629E-02    0.0000       7.71999E-06   4.02575E-20   4.94168E-41    0.0000       3.30080E-02  -1.62777E-33   8.01033E-10    0.0000      -4.41288E-33
                      -2.89568E-32  -3.23287E-34   2.83095E-13   5.44346E-20
    40    597.28      -1.71178E-26   1.10839E-31   2.31207E-14    0.0000      -1.79609E-27   1.74942E-02    0.0000       1.17531E-05   1.22167E-19   4.95849E-41    0.0000       4.69413E-02  -3.52602E-33   1.69850E-09    0.0000      -1.38920E-32
                      -5.98983E-32  -9.13699E-34   6.67803E-13   1.73509E-19
    41    612.21      -3.91297E-26   1.11028E-31   6.14747E-14    0.0000      -4.45920E-27   2.29970E-02    0.0000       1.76110E-05   3.56882E-19   4.97475E-41    0.0000       6.60717E-02  -7.39336E-33   3.50529E-09    0.0000      -3.97674E-32
                      -1.19789E-31  -9.12320E-30   1.52919E-12   5.32391E-19
    42    627.14      -8.79977E-26   1.11217E-31   1.57975E-13    0.0000      -1.04290E-26   2.99202E-02  -4.99030E-41   2.59892E-05   1.00670E-18   4.99030E-41  -2.49515E-41   9.22131E-02  -1.50634E-32   7.05141E-09    0.0000      -1.06103E-31
                      -2.32561E-31  -3.90457E-29   3.40442E-12   1.57530E-18
    43    642.08      -1.94301E-25   1.11407E-31   3.93015E-13    0.0000      -2.32541E-26   3.85499E-02  -2.10219E-39   3.77808E-05   2.74800E-18   5.00516E-41  -2.00209E-40   0.12762      -2.99164E-32   1.38465E-08    0.0000      -2.67869E-31
                      -4.39824E-31  -1.22119E-28   7.37934E-12   4.50219E-18
    44    657.01      -4.20796E-25   1.11560E-31   9.48093E-13  -1.25486E-41  -4.98202E-26   4.92136E-02  -1.61000E-38   5.41557E-05   7.27123E-18  -1.00390E-40  -9.28607E-40   0.17505      -5.80744E-32   2.65766E-08    0.0000      -6.46506E-31
                      -8.12847E-31  -3.30896E-28   1.55943E-11   1.24473E-17
    45    671.94      -8.91936E-25   1.11659E-31   2.22106E-12  -5.03318E-41  -1.03112E-25   6.22823E-02  -8.40040E-38   7.66108E-05   1.86766E-17  -3.26700E-36  -3.58615E-39   0.23788      -1.10456E-31   4.99221E-08    0.0000      -1.50339E-30
                      -1.47272E-30  -8.06561E-28   3.21684E-11   3.33377E-17
    46    686.87      -1.85559E-24  -6.34185E-33   5.05993E-12  -1.76622E-40  -2.06981E-25   7.81738E-02  -3.40086E-37   1.07041E-04   4.66320E-17  -1.42530E-35  -1.23383E-38   0.32159      -2.06278E-31   9.18790E-08    0.0000      -3.38407E-30
                      -2.62549E-30  -1.82782E-27   6.48503E-11   8.66148E-17
    47    701.80      -3.80337E-24  -2.50883E-31   1.12248E-11  -5.43840E-40  -4.04210E-25   9.73556E-02  -1.19387E-36   1.47819E-04   1.13321E-16  -5.93806E-35  -3.87138E-38   0.43187      -3.78976E-31   1.65849E-07    0.0000      -7.40365E-30
                      -4.62678E-30  -3.91789E-27   1.27905E-10   2.18571E-16
    48    716.74      -7.66848E-24  -5.78321E-31   2.42776E-11  -1.59740E-39  -7.69833E-25   0.12035      -3.77351E-36   2.01891E-04   2.68333E-16  -3.44204E-34  -1.12161E-37   0.57492      -6.86179E-31   2.93923E-07    0.0000      -1.57877E-29
                      -8.11079E-30  -8.02354E-27   2.47056E-10   5.36357E-16
    49    730.00      -1.30391E-23   1.38062E-31   4.62337E-11  -3.83303E-39  -1.31827E-24   0.14431      -9.04729E-36   2.63604E-04   5.59624E-16  -1.03529E-33  -2.59072E-37   0.73394      -1.13241E-30   4.76971E-07    0.0000      -2.95895E-29
                      -1.32000E-29  -1.42546E-26   4.34460E-10   1.13822E-15
     1    751.79      -5.73143E-23  -4.43356E-30   1.48947E-10  -2.25431E-38  -3.43168E-24   0.18972      -6.85985E-35   3.96060E-04   1.80972E-15  -9.14499E-33  -1.55914E-36    1.0774      -2.91014E-30   1.08866E-06  -1.27434E-41  -1.00112E-28
                      -3.46466E-29  -4.35320E-26   1.05954E-09   4.11448E-15
     2    773.59      -1.76188E-22   1.95057E-29   4.41279E-10  -1.08424E-37  -8.27586E-24   0.24624      -3.41853E-34   5.83610E-04   5.61270E-15  -4.27756E-32  -7.24943E-36    1.5422      -7.33498E-30   2.37311E-06  -8.94056E-41  -3.12852E-28
                      -9.24709E-29  -1.13340E-25   2.49734E-09   1.37406E-14
     3    795.38      -4.67901E-22   3.07912E-29   1.22041E-09  -4.54909E-37  -1.86264E-23   0.31582      -1.36144E-33   8.44676E-04   1.66490E-14  -1.54935E-31  -2.87385E-35    2.1578      -1.82344E-29   4.96872E-06  -2.94397E-40  -9.12784E-28
                      -2.48960E-28  -2.67702E-25   5.69117E-09   4.30221E-14
     4    817.17      -1.13000E-21   1.68580E-28   3.18298E-09  -1.72227E-36  -3.94163E-23   0.40054      -4.67565E-33   1.20237E-03   4.72419E-14  -4.81953E-31  -1.01552E-34    2.9581      -4.47089E-29   1.00369E-05  -8.59213E-40  -2.50540E-27
                      -6.82386E-28  -5.90027E-25   1.25506E-08   1.27339E-13
     5    838.96      -2.56594E-21   1.81216E-27   7.88708E-09  -6.00533E-36  -7.90258E-23   0.50270      -1.44082E-32   1.68531E-03   1.28405E-13  -1.34921E-30  -3.27994E-34    3.9806      -1.07810E-28   1.96317E-05  -2.44058E-39  -6.50668E-27
                      -1.90398E-27  -1.22114E-24   2.68155E-08   3.58278E-13
     6    860.76      -5.56814E-21   2.00820E-26   1.86738E-08  -1.95484E-35  -1.51234E-22   0.62473      -4.08070E-32   2.32847E-03   3.34916E-13  -3.49142E-30  -9.83913E-34    5.2668      -2.54799E-28   3.72920E-05  -6.61186E-39  -1.60646E-26
                      -5.27366E-27  -2.39508E-24   5.55853E-08   9.62254E-13
     7    882.55      -1.16259E-20   2.00543E-25   4.24401E-08  -5.99740E-35  -2.78218E-22   0.76923      -1.07940E-31   3.17408E-03   8.39981E-13  -8.48687E-30  -2.77211E-33    6.8616      -5.88868E-28   6.89717E-05  -1.71429E-38  -3.78675E-26
                      -1.47406E-26  -4.47261E-24   1.11945E-07   2.47561E-12
     8    904.34      -2.36960E-20   1.78358E-24   9.29346E-08  -1.74642E-34  -4.95561E-22   0.93895      -2.69692E-31   4.27261E-03   2.03013E-12  -1.96143E-29  -7.39639E-33    8.8137      -1.32942E-27   1.24467E-04  -4.29111E-38  -8.55590E-26
                      -4.25831E-26  -7.93981E-24   2.19365E-07   6.11927E-12
     9    926.13      -4.77288E-20   1.42340E-23   1.96708E-07  -4.85295E-34  -8.61357E-22    1.1368      -6.41867E-31   5.68371E-03   4.73851E-12  -4.32891E-29  -1.88090E-32    11.174      -2.93232E-27   2.19550E-04  -1.04284E-37  -1.85986E-25
                      -1.20289E-25  -1.35294E-23   4.18837E-07   1.45706E-11
    10    947.93      -9.52864E-20   1.02815E-22   4.03558E-07  -1.29240E-33  -1.46265E-21    1.3656      -1.46487E-30   7.47723E-03   1.07027E-11  -9.16161E-29  -4.58241E-32    13.998      -6.32639E-27   3.79211E-04  -2.46982E-37  -3.90329E-25
                      -3.47124E-25  -2.21034E-23   7.80210E-07   3.34983E-11
    11    969.72      -1.88968E-19   6.77384E-22   8.04378E-07  -3.31021E-33  -2.42197E-21    1.6286      -3.22243E-30   9.73417E-03   2.34333E-11  -1.86464E-28  -1.07416E-31    17.340      -1.33733E-26   6.42286E-04  -5.72233E-37  -7.93535E-25
                      -1.01426E-24  -3.46223E-23   1.41988E-06   7.45138E-11
    12    991.51      -3.71440E-19   4.09795E-21   1.56100E-06  -8.17888E-33  -3.90553E-21    1.9289      -6.86453E-30   1.25477E-02   4.98126E-11  -3.66086E-28  -2.43152E-31    21.260      -2.77567E-26   1.06777E-03  -1.30248E-36  -1.56777E-24
                      -2.92151E-24  -5.20987E-23   2.52753E-06   1.60681E-10
    13    1013.3      -7.18948E-19   2.28958E-20   2.95504E-06  -1.95469E-32  -6.13049E-21    2.2696      -1.42149E-29   1.60240E-02   1.02957E-10  -6.94872E-28  -5.33232E-31    25.816      -5.66863E-26   1.74468E-03  -2.92659E-36  -3.01956E-24
                      -8.10060E-24  -7.51148E-23   4.40492E-06   3.36509E-10
    14    1035.1      -1.38045E-18   1.18759E-19   5.46577E-06  -4.52958E-32  -9.37187E-21    2.6545      -2.86988E-29   2.02836E-02   2.07257E-10  -1.27740E-27  -1.13611E-30    31.068      -1.14140E-25   2.80580E-03  -6.52663E-36  -5.68758E-24
                      -2.15239E-23  -1.04293E-22   7.52275E-06   6.85582E-10
    15    1056.9      -2.62495E-18   5.74451E-19   9.89303E-06  -1.02001E-31  -1.39633E-20    3.0869      -5.67139E-29   2.54613E-02   4.06970E-10  -2.27799E-27  -2.35784E-30    37.077      -2.26999E-25   4.43964E-03  -1.45313E-35  -1.05108E-23
                      -5.51997E-23  -1.37954E-22   1.26001E-05   1.36078E-09
    16    1078.7      -4.92783E-18   2.60196E-18   1.75474E-05  -2.23680E-31  -2.02996E-20    3.5701      -1.09691E-28   3.17078E-02   7.80568E-10  -3.94611E-27  -4.77791E-30    43.902      -4.46570E-25   6.91369E-03  -3.24898E-35  -1.91210E-23
                      -1.39131E-22  -1.69475E-22   2.07040E-05   2.63489E-09
    17    1100.5      -9.16514E-18   1.10773E-17   3.05362E-05  -4.78622E-31  -2.88260E-20    4.1072      -2.07571E-28   3.91899E-02   1.46386E-09  -6.64943E-27  -9.47468E-30    51.603      -8.70071E-25   1.06491E-02  -7.33432E-35  -3.43575E-23
                      -3.38805E-22  -2.02068E-22   3.34860E-05   4.98371E-09
    18    1122.3      -1.68825E-17   4.44777E-17   5.21931E-05  -1.00123E-30  -4.00415E-20    4.7016      -3.84459E-28   4.80910E-02   2.68668E-09  -1.09096E-26  -1.84257E-29    60.236      -1.68028E-24   1.61575E-02  -1.67909E-34  -6.11797E-23
                      -8.06254E-22  -2.21336E-22   5.32717E-05   9.21976E-09
    19    1144.1      -3.08452E-17   1.68963E-16   8.77241E-05  -2.05132E-30  -5.44820E-20    5.3562      -6.97264E-28   5.86124E-02   4.83006E-09  -1.74287E-26  -3.52145E-29    69.859      -3.21817E-24   2.41082E-02  -3.91067E-34  -1.08288E-22
                      -1.88663E-21  -1.58741E-22   8.33027E-05   1.67030E-08
    20    1165.9      -5.56963E-17   6.09042E-16   1.45113E-04  -4.12315E-30  -7.26992E-20    6.0741      -1.23879E-27   7.09732E-02   8.51683E-09  -2.71693E-26  -6.62772E-29    80.524      -6.11467E-24   3.53281E-02  -9.27870E-34  -1.90998E-22
                      -4.29625E-21  -1.11474E-22   1.28046E-04   2.96645E-08
    21    1187.6      -9.90735E-17   2.08876E-15   2.36387E-04  -8.14305E-30  -9.53371E-20    6.8581      -2.15691E-27   8.54105E-02   1.47469E-08  -4.13115E-26  -1.23106E-28    92.284      -1.15284E-23   5.08664E-02  -2.23966E-33  -3.36296E-22
                      -9.55290E-21  -3.34526E-23   1.93449E-04   5.16946E-08
    22    1209.4      -1.73203E-16   6.83298E-15   3.79726E-04  -1.58236E-29  -1.23099E-19    7.7108      -3.68199E-27   0.10218       2.51041E-08  -6.13145E-26  -2.26172E-28    105.19      -2.15697E-23   7.20431E-02  -5.47931E-33  -5.91634E-22
                      -2.04688E-20   2.89086E-24   2.87533E-04   8.84662E-08
    23    1231.2      -2.97619E-16   2.13718E-14   6.01876E-04  -3.02910E-29  -1.56659E-19    8.6350      -6.16503E-27   0.12156       4.20296E-08  -8.87649E-26  -4.10929E-28    119.27      -4.00456E-23   0.10048      -1.35068E-32  -1.04001E-21
                      -4.29284E-20   1.79765E-23   4.20853E-04   1.48799E-07
    24    1253.0      -5.04824E-16   6.40542E-14   9.41286E-04  -5.71827E-29  -1.96965E-19    9.6327      -1.01291E-26   0.14383       6.92199E-08  -1.25613E-25  -7.37727E-28    134.59      -7.37507E-23   0.13812      -3.33164E-32  -1.82543E-21
                      -8.81791E-20   9.85124E-23   6.07115E-04   2.46241E-07
    25    1274.8      -8.51648E-16   1.84346E-13   1.45512E-03  -1.06550E-28  -2.42181E-19    10.706      -1.63372E-26   0.16931       1.12184E-07  -1.74578E-25  -1.30801E-27    151.18      -1.34678E-22   0.18731      -8.17052E-32  -3.19509E-21
                      -1.73157E-19   5.08857E-22   8.63883E-04   4.01283E-07
    26    1296.6      -1.42165E-15   5.10449E-13   2.22435E-03  -1.96108E-28  -2.95628E-19    11.858      -2.58778E-26   0.19832       1.79094E-07  -2.39126E-25  -2.28947E-27    169.06      -2.43755E-22   0.25081      -1.98210E-31  -5.56842E-21
                      -3.32248E-19   2.49531E-21   1.21342E-03   6.44389E-07
    27    1318.4      -2.33716E-15   1.36242E-12   3.35949E-03  -3.56746E-28  -3.41571E-19    13.088      -4.02709E-26   0.23121       2.82015E-07  -3.23824E-25  -3.95497E-27    188.27      -4.37117E-22   0.33186      -4.74023E-31  -9.64797E-21
                      -6.31452E-19   1.15880E-20   1.68364E-03   1.02012E-06
    28    1340.2      -3.77494E-15   3.51132E-12   5.01960E-03  -6.41795E-28  -3.89507E-19    14.400      -6.15986E-26   0.26833       4.39349E-07  -4.35100E-25  -6.74141E-27    208.84      -7.76690E-22   0.43421      -1.11539E-30  -1.65952E-20
                      -1.19179E-18   5.11113E-20   2.30921E-03   1.59280E-06
    29    1362.0      -5.98268E-15   8.75286E-12   7.44232E-03  -1.14217E-27  -4.48304E-19    15.793      -9.26512E-26   0.31006       6.75856E-07  -5.80135E-25  -1.13375E-26    230.79      -1.36737E-21   0.56215      -2.58010E-30  -2.83056E-20
                      -2.20654E-18   2.14314E-19   3.13280E-03   2.45419E-06
    30    1383.8      -9.30041E-15   2.11363E-11   1.09076E-02  -2.01195E-27  -5.14088E-19    17.269      -1.37105E-25   0.35679       1.02578E-06  -7.72494E-25  -1.88123E-26    254.13      -2.38486E-21   0.72059      -5.86635E-30  -4.78332E-20
                      -4.08397E-18   8.55501E-19   4.20652E-03   3.73643E-06
    31    1405.6      -1.42554E-14   4.95171E-11   1.57758E-02  -3.50773E-27  -5.48335E-19    18.827      -1.99700E-25   0.40893       1.53583E-06  -1.04418E-24  -3.07999E-26    278.88      -4.12007E-21   0.91506      -1.31140E-29  -8.00396E-20
                      -7.43365E-18   3.25674E-18   5.59333E-03   5.62508E-06
    32    1427.4      -2.14468E-14   1.12703E-10   2.24773E-02  -6.05880E-27  -4.17649E-19    20.470      -2.86497E-25   0.46692       2.26858E-06  -1.43430E-24  -4.97623E-26    305.04      -7.04899E-21    1.1518      -2.88504E-29  -1.32561E-19
                      -1.35686E-17   1.18450E-17   7.36889E-03   8.37475E-06
    33    1449.2      -3.18032E-14   2.49546E-10   3.15605E-02  -1.03545E-26  -3.24693E-19    22.195      -4.04982E-25   0.53118       3.30712E-06  -1.99390E-24  -7.93552E-26    332.62      -1.19489E-20    1.4376      -6.25548E-29  -2.17247E-19
                      -2.47438E-17   4.12345E-17   9.62324E-03   1.23300E-05
    34    1460.0      -3.75331E-14   3.46968E-10   3.69490E-02  -1.31619E-26  -2.43421E-19    23.080      -4.75214E-25   0.56529       3.93646E-06  -2.33106E-24  -9.80688E-26    346.86      -1.51033E-20    1.5979      -8.76044E-29  -2.70984E-19
                      -3.26401E-17   6.79019E-17   1.09188E-02   1.47221E-05
     1    1484.6      -5.74108E-14   8.46934E-10   5.30665E-02  -2.39535E-26   1.91782E-19    25.136      -6.87653E-25   0.64902       5.90413E-06  -3.56463E-24  -1.63895E-25    380.32      -2.73750E-20    2.0243      -2.11045E-28  -4.70302E-19
                      -6.23821E-17   2.80306E-16   1.45467E-02   2.24501E-05
     2    1509.3      -8.61903E-14   1.98391E-09   7.49384E-02  -4.28848E-26   2.65641E-19    27.292      -9.76632E-25   0.74200       8.71259E-06  -5.56860E-24  -2.69152E-25    415.55      -4.90064E-20    2.5403      -4.98548E-28  -8.04999E-19
                      -1.11992E-16   1.07708E-15   1.91854E-02   3.37745E-05
     3    1533.9      -1.25625E-13   4.47855E-09   0.10418      -7.55997E-26   5.89532E-19    29.546      -1.36327E-24   0.84487       1.26653E-05  -8.34772E-24  -4.34681E-25    452.54      -8.65876E-20    3.1597      -1.15558E-27  -1.35989E-18
                      -1.76107E-16   3.88531E-15   2.50614E-02   5.03252E-05
     4    1558.6      -1.79417E-13   9.77562E-09   0.14275      -1.31341E-25   1.94489E-18    31.900      -1.87080E-24   0.95825       1.81555E-05  -8.33246E-24  -6.90921E-25    491.26      -1.51396E-19    3.8974      -2.62894E-27  -2.26854E-18
                      -2.48964E-16   1.32391E-14   3.24392E-02   7.40828E-05
     5    1583.2      -2.42377E-13   2.06875E-08   0.19299      -2.25077E-25   7.48087E-18    34.352      -2.52595E-24    1.0828       2.56876E-05  -9.90349E-24  -1.08173E-24    531.69      -2.61493E-19    4.7694      -5.86992E-27  -3.73858E-18
                      -3.26838E-16   4.28176E-14   4.16250E-02   1.07634E-04
     6    1607.8      -3.16426E-13   4.25423E-08   0.25763      -3.80808E-25   2.93188E-17    36.897      -3.35730E-24    1.2191       3.59004E-05  -1.13254E-23  -1.66950E-24    573.79      -4.45726E-19    5.7930      -1.28607E-26  -6.08717E-18
                      -4.19198E-16   1.31951E-13   5.29707E-02   1.54310E-04
     7    1632.5      -4.02724E-13   8.51840E-08   0.33991      -6.36668E-25   1.11724E-16    39.533      -4.40193E-24    1.3679       4.95959E-05  -3.70965E-24  -2.54198E-24    617.54      -7.49315E-19    6.9866      -2.76426E-26  -9.78872E-18
                      -5.89130E-16   3.88740E-13   6.68791E-02   2.18342E-04
     8    1657.1      -4.99579E-13   1.66366E-07   0.44355      -1.05279E-24   4.08173E-16    42.257      -5.69763E-24    1.5301       6.77710E-05   5.72593E-23  -3.82128E-24    662.88      -1.24187E-18    8.3698      -5.82770E-26  -1.55344E-17
                      -9.18472E-16   1.09800E-12   8.38110E-02   3.04856E-04
     9    1681.8      -5.93837E-13   3.17370E-07   0.57284      -1.72331E-24   1.42513E-15    45.066      -7.25356E-24    1.7063       9.16538E-05   6.29764E-23  -5.67572E-24    709.76      -2.02902E-18    9.9630      -1.20496E-25  -2.42967E-17
                      -1.44107E-15   2.98079E-12   0.10429       4.20240E-04
    10    1706.4      -6.66040E-13   5.92226E-07   0.73267      -2.79472E-24   4.75681E-15    47.957      -9.08162E-24    1.8971       1.22744E-04   9.22703E-23  -8.33524E-24    758.15      -3.26785E-18    11.788      -2.44345E-25  -3.73876E-17
                      -2.33076E-15   7.79528E-12   0.12894       5.72482E-04
    11    1731.1      -6.86726E-13   1.08239E-06   0.92855      -4.49356E-24   1.52000E-14    50.926      -1.12903E-23    2.1031       1.62857E-04   2.33118E-22  -1.21112E-23    807.99      -5.18703E-18    13.867      -4.86004E-25  -5.65049E-17
                      -3.56646E-15   1.96785E-11   0.15843       7.71329E-04
    12    1755.7      -7.24237E-13   1.93956E-06    1.1667      -7.16828E-24   4.65788E-14    53.970      -1.36981E-23    2.3249       2.14178E-04   9.04191E-22  -1.74222E-23    859.22      -8.11317E-18    16.223      -9.48360E-25  -8.37827E-17
                      -5.79642E-15   4.80424E-11   0.19348       1.02857E-03
    13    1780.3      -7.40054E-13   3.41126E-06    1.4539      -1.13515E-23   1.37130E-13    57.086      -1.61739E-23    2.5631       2.79310E-04   4.05789E-21  -2.48255E-23    911.78      -1.25029E-17    18.881      -1.81608E-24  -1.21867E-16
                      -8.94185E-15   1.13629E-10   0.23489       1.35834E-03
    14    1805.0      -6.99029E-13   5.89511E-06    1.7980      -1.78522E-23   3.88544E-13    60.269      -1.86306E-23    2.8181       3.61338E-04   1.83151E-20  -3.50581E-23    965.60      -1.89807E-17    21.864      -3.41414E-24  -1.74011E-16
                      -1.07841E-14   2.60782E-10   0.28355       1.77746E-03
    15    1829.6      -5.14533E-13   1.00179E-05    2.2072      -2.78915E-23   1.06133E-12    63.517      -2.10644E-23    3.0904       4.63893E-04   7.96424E-20  -4.90846E-23    1020.6      -2.83818E-17    25.198      -6.30346E-24  -2.44250E-16
                      -1.37016E-14   5.81623E-10   0.34041       2.30578E-03
    16    1854.3      -7.57064E-14   1.67486E-05    2.6907      -4.32954E-23   2.79941E-12    66.824      -2.34403E-23    3.3808       5.91221E-04   3.30156E-19  -6.81570E-23    1076.8      -4.17979E-17    28.908      -1.14342E-23  -3.37261E-16
                      -1.91824E-14   1.26237E-09   0.40652       2.96659E-03
    17    1878.9       9.07280E-14   2.75813E-05    3.2585      -6.67773E-23   7.14113E-12    70.187      -2.47742E-23    3.6897       7.48254E-04   1.30300E-18  -9.38839E-23    1134.1      -6.06167E-17    33.021      -2.03860E-23  -4.58289E-16
                      -2.38613E-14   2.66990E-09   0.48300       3.78706E-03
    18    1903.5       3.25473E-13   4.47770E-05    3.9214      -1.02318E-22   1.76441E-11    73.602      -1.90873E-23    4.0172       9.40693E-04   4.90132E-18  -1.28307E-22    1192.3      -8.65560E-17    37.561      -3.57391E-23  -6.12181E-16
                      -1.35749E-14   5.50916E-09   0.57104       4.79861E-03
    19    1928.2       8.45774E-13   7.16789E-05    4.6909      -1.55696E-22   4.22849E-11    77.107      -1.46048E-23    4.3635       1.17509E-03   1.76032E-17  -1.73987E-22    1251.5      -1.21679E-16    42.554      -6.16349E-23  -8.03035E-16
                       5.65531E-14   1.11036E-08   0.67195       6.03744E-03
    20    1952.8       1.93666E-12   1.13137E-04    5.5794      -2.35255E-22   9.84276E-11    80.635      -8.38992E-24    4.7288       1.45893E-03   6.04778E-17  -2.34097E-22    1311.6      -1.68392E-16    48.027      -1.04610E-22  -1.03395E-15
                       8.03657E-14   2.18836E-08   0.78708       7.54498E-03
    21    1977.5       4.14406E-12   1.76502E-04    6.6000      -3.52737E-22   2.22835E-10    84.193       7.78658E-24    5.1135       1.80072E-03   1.99122E-16  -3.12488E-22    1372.4      -2.29405E-16    54.005      -1.74826E-22  -1.30977E-15
                       1.66683E-13   4.22178E-08   0.91790       9.36837E-03
    22    2002.1       8.48877E-12   2.72156E-04    7.7667      -5.24654E-22   4.91364E-10    87.783       8.63446E-24    5.5178       2.21011E-03   6.29399E-16  -4.13757E-22    1434.0      -3.07617E-16    60.512      -2.87865E-22  -1.63503E-15
                       4.18056E-13   7.97984E-08    1.0659       1.15610E-02
    23    2026.7       1.68739E-11   4.14519E-04    9.0940      -7.73804E-22   1.05696E-09    91.402       1.21270E-23    5.9420       2.69796E-03   1.91315E-15  -5.43263E-22    1496.2      -4.06006E-16    67.573      -4.67308E-22  -2.01247E-15
                       1.08615E-12   1.47923E-07    1.2327       1.41830E-02
    24    2051.4       3.27398E-11   6.23240E-04    10.598      -1.13123E-21   2.22061E-09    95.049       2.70529E-23    6.3861       3.27644E-03   5.60128E-15  -7.07134E-22    1559.0      -5.27452E-16    75.213      -7.48438E-22  -2.42995E-15
                       2.73446E-12   2.69163E-07    1.4198       1.73020E-02
    25    2076.0       6.22091E-11   9.30917E-04    12.293      -1.63856E-21   4.56003E-09    98.722       9.18886E-23    6.8503       3.95914E-03   1.58199E-14  -9.12012E-22    1622.4      -6.74435E-16    83.455      -1.18350E-21  -2.85695E-15
                       6.56543E-12   4.81104E-07    1.6292       2.09932E-02
    26    2100.7       1.15994E-10   1.37560E-03    14.198      -2.35082E-21   9.16013E-09    102.42       3.74387E-22    7.3346       4.76116E-03   4.31653E-14  -1.16493E-21    1686.1      -8.48859E-16    92.320      -1.84911E-21  -3.23980E-15
                       1.50662E-11   8.45364E-07    1.8625       2.53402E-02
    27    2125.3       2.12528E-10   2.00681E-03    16.328      -3.33956E-21   1.80144E-08    106.13       1.57584E-21    7.8390       5.69928E-03   1.13945E-13  -1.47283E-21    1750.3      -1.05171E-15    101.83      -2.85660E-21  -3.54648E-15
                       3.35388E-11   1.46155E-06    2.1217       3.04353E-02
    28    2150.0       3.82983E-10   2.88866E-03    18.703      -4.69653E-21   3.47143E-08    109.86       6.49270E-21    8.3634       6.79198E-03   2.91384E-13  -1.84267E-21    1814.8      -1.28285E-15    112.01      -4.36630E-21  -3.87146E-15
                       7.21372E-11   2.48787E-06    2.4086       3.63801E-02
    29    2174.6       6.79112E-10   4.09758E-03    21.340      -6.53743E-21   6.56072E-08    113.59       2.57661E-20    8.9079       8.05958E-03   7.22782E-13  -2.27936E-21    1879.5      -1.54072E-15    122.87      -6.60698E-21  -4.15986E-15
                       1.50071E-10   4.17084E-06    2.7254       4.32858E-02
    30    2190.0       9.16916E-10   5.02849E-03    23.123      -7.96436E-21   9.47808E-08    115.93       5.13080E-20    9.2577       8.94003E-03   1.16697E-12  -2.58547E-21    1920.1      -1.71392E-15    130.01      -8.44616E-21  -4.31056E-15
                       2.12195E-10   5.62439E-06    2.9377       4.80912E-02
     1    2223.1       2.11604E-09   7.86167E-03    27.337      -1.21648E-20   2.21376E-07    120.66       4.20394E-19    10.010       1.11355E-02   4.32713E-12  -3.34057E-21    2006.2      -2.10904E-15    146.16      -1.45868E-20  -3.79804E-15
                       6.37836E-10   1.12138E-05    3.4364       6.00379E-02
     2    2256.2       4.61204E-09   1.19903E-02    32.117      -1.81983E-20   4.97153E-07    125.32       2.82633E-18    10.793       1.37700E-02   1.45236E-11  -4.22367E-21    2092.4      -2.52718E-15    163.61      -2.47248E-20  -7.94175E-16
                       1.67530E-09   2.16601E-05    3.9978       7.43752E-02
     3    2289.3       9.59855E-09   1.78871E-02    37.509      -2.66762E-20   1.07652E-06    130.02       1.64377E-17    11.613       1.69108E-02   4.50199E-11  -5.20224E-21    2178.6      -2.94819E-15    182.38      -4.11444E-20   3.46550E-16
                       4.03043E-09   4.07400E-05    4.6270       9.14620E-02
     4    2322.5       1.92171E-08   2.61580E-02    43.559      -3.83334E-20   2.25723E-06    134.75       8.51392E-17    12.459       2.06321E-02   1.30533E-10  -6.13224E-21    2264.5      -3.34267E-15    202.51      -6.72178E-20   1.58655E-15
                       9.09092E-09   7.46627E-05    5.3287       0.11169    
     5    2355.6       3.71908E-08   3.75677E-02    50.315      -5.40193E-20   4.57721E-06    139.49       3.99927E-16    13.331       2.50159E-02   3.57175E-10  -6.90168E-21    2350.2      -3.71354E-15    224.02      -1.07780E-19   5.63405E-15
                       1.94806E-08   1.33169E-04    6.1079       0.13549    
     6    2388.7       6.98131E-08   5.30692E-02    57.822      -7.46811E-20   9.02768E-06    144.22       1.72512E-15    14.233       3.01507E-02   9.28473E-10  -7.43194E-21    2435.4      -3.98079E-15    246.93      -1.69550E-19   1.86220E-14
                       3.99944E-08   2.33540E-04    6.9695       0.16332    
     7    2421.8       1.27525E-07   7.38357E-02    66.127      -1.01317E-19   1.73046E-05    148.89       6.89697E-15    15.161       3.61325E-02   2.30475E-09  -7.86500E-21    2520.1      -4.13129E-15    271.24      -2.61542E-19   5.85040E-14
                       7.91438E-08   3.99984E-04    7.9183       0.19567    
     8    2454.9       2.27328E-07   0.10129        75.274      -1.34912E-19   3.21287E-05    153.49       2.57419E-14    16.116       4.30646E-02   5.48636E-09  -8.12523E-21    2604.1      -4.14831E-15    296.97      -3.95398E-19   1.74919E-13
                       1.51711E-07   6.67654E-04    8.9591       0.23309    
     9    2488.0       3.96353E-07   0.13716        85.307      -1.76359E-19   5.76736E-05    158.02       9.02213E-14    17.096       5.10576E-02   1.25689E-08  -7.51253E-21    2687.4      -4.02487E-15    324.12      -5.85536E-19   4.98059E-13
                       2.82579E-07   1.08434E-03    10.097       0.27612    
    10    2521.1       6.76969E-07   0.18349        96.268      -2.26309E-19   1.00352E-04    162.48       2.98404E-13    18.100       6.02294E-02   2.77944E-08  -6.97671E-21    2769.7      -3.82159E-15    352.68      -8.48998E-19   1.35176E-12
                       5.12790E-07   1.71795E-03    11.335       0.32537    
    11    2554.3       1.13391E-06   0.24268        108.20      -2.85086E-19   1.69697E-04    166.84       9.35361E-13    19.126       7.07047E-02   5.94846E-08  -5.46646E-21    2851.1      -3.49075E-15    382.66      -1.20489E-18   3.50456E-12
                       9.10169E-07   2.66095E-03    12.680       0.38146    
    12    2587.4       1.86500E-06   0.31758        121.14      -3.52540E-19   2.79539E-04    171.07       2.78898E-12    20.172       8.26154E-02   1.23505E-07   7.17673E-23    2931.5      -2.99675E-15    414.04      -1.67341E-18   8.69172E-12
                       1.58028E-06   4.03702E-03    14.134       0.44505    
    13    2620.5       3.01755E-06   0.41144        135.12      -4.27945E-19   4.49531E-04    175.17       7.93679E-12    21.238       9.60999E-02   2.49260E-07   6.27871E-22    3010.8      -2.40202E-15    446.79      -2.27433E-18   2.06581E-11
                       2.68339E-06   6.00914E-03    15.702       0.51683    
    14    2653.6       4.80818E-06   0.52805        150.18      -5.09864E-19   7.07052E-04    179.14       2.16215E-11    22.321       0.11130       4.89901E-07   4.23053E-21    3088.8      -1.85381E-15    480.92      -3.02520E-18   4.71775E-11
                       4.47538E-06   8.78894E-03    17.387       0.59749    
    15    2686.7       7.54913E-06   0.67169        166.35      -5.96009E-19   1.08958E-03    182.98       5.65375E-11    23.413       0.12837       9.39442E-07   2.56830E-20    3165.5      -1.32027E-15    516.37      -3.93928E-18   1.03790E-10
                       7.32634E-06   1.26474E-02    19.193       0.68778    
    16    2719.8       1.16783E-05   0.84725        183.65      -6.83656E-19   1.64754E-03    186.75       1.42256E-10    24.534       0.14747       1.75996E-06   1.44014E-19    3241.0      -5.61894E-16    553.14      -5.02289E-18   2.20501E-10
                       1.17572E-05   1.79274E-02    21.124       0.78844    
    17    2752.9       1.78196E-05    1.0602        202.12      -7.69052E-19   2.44780E-03    190.45       3.45211E-10    25.677       0.16875       3.22451E-06   7.49769E-19    3315.0       8.42520E-16    591.18      -6.27376E-18   4.53415E-10
                       1.84893E-05   2.50569E-02    23.182       0.90025    
    18    2786.1       2.68902E-05    1.3167        221.78      -8.47351E-19   3.57769E-03    194.06       8.09619E-10    26.839       0.19238       5.78990E-06   3.64216E-18    3387.6       1.08571E-15    630.46      -7.67997E-18   9.04341E-10
                       2.85050E-05   3.45654E-02    25.369        1.0240    
    19    2819.2       4.01338E-05    1.6235        242.64      -9.14555E-19   5.14984E-03    197.58       1.83856E-09    28.020       0.21853       1.01962E-05   1.65591E-17    3458.7       1.69276E-15    670.94      -9.21761E-18   1.75295E-09
                       4.31521E-05   4.70998E-02    27.689        1.1604    
    20    2852.3       5.92159E-05    1.9881        264.72      -9.64687E-19   7.30761E-03    201.00       4.05018E-09    29.217       0.24737       1.76116E-05   7.06925E-17    3528.2       3.16005E-15    712.57      -1.08530E-17   3.30821E-09
                       6.42325E-05   6.34438E-02    30.142        1.3104    
    21    2885.4       8.63721E-05    2.4188        288.04      -9.86800E-19   1.02315E-02    204.31       8.66971E-09    30.422       0.27908       2.99245E-05   2.84273E-16    3596.2       6.70758E-15    755.31      -1.25376E-17   6.08860E-09
                       9.41222E-05   8.45372E-02    32.731        1.4747    
    22    2918.5       1.24499E-04    2.9246        312.59      -9.79251E-19   1.41459E-02    207.51       1.80587E-08    31.631       0.31383       5.00304E-05   1.08001E-15    3662.5       1.51802E-14    799.12      -1.42283E-17   1.09446E-08
                       1.35917E-04   0.11150        35.457        1.6541    
    23    2920.0       1.26225E-04    2.9486        313.72      -9.77628E-19   1.43394E-02    207.65       1.85222E-08    31.685       0.31543       5.10138E-05   1.12271E-15    3665.4       1.56058E-14    801.10      -1.43049E-17   1.11815E-08
                       1.37885E-04   0.11281        35.581        1.6624    
     1    2942.9       1.60251E-04    3.3527        331.70      -9.44594E-19   1.78051E-02    210.11       2.93512E-08    32.580       0.34187       7.11366E-05   2.46337E-15    3711.3       2.64542E-14    832.52      -1.54487E-17   1.62633E-08
                       1.75393E-04   0.13583        37.598        1.7988    
     2    2965.9       2.03155E-04    3.8017        350.30      -8.95806E-19   2.19947E-02    212.52       4.61741E-08    33.480       0.36998       9.85841E-05   5.36714E-15    3756.3       4.50125E-14    864.42      -1.65245E-17   2.34749E-08
                       2.21942E-04   0.16286        39.686        1.9436    
     3    2988.8       2.56821E-04    4.2996        369.51      -8.49833E-19   2.70348E-02    214.88       7.21025E-08    34.384       0.39983       1.35749E-04   1.15898E-14    3800.4       7.65619E-14    896.78      -1.75111E-17   3.36300E-08
                       2.79417E-04   0.19446        41.844        2.0969    
     4    3011.8       3.23463E-04    4.8503        389.34      -8.03069E-19   3.30699E-02    217.19       1.11750E-07    35.291       0.43149       1.86266E-04   2.47675E-14    3843.8       1.29836E-13    929.60      -1.83833E-17   4.78215E-08
                       3.50030E-04   0.23127        44.073        2.2591    
     5    3034.7       4.05663E-04    5.4578        409.78      -7.47869E-19   4.02640E-02    219.45       1.71894E-07    36.202       0.46503       2.54587E-04   5.23188E-14    3886.3       2.19159E-13    962.84      -1.91139E-17   6.75063E-08
                       4.36363E-04   0.27398        46.373        2.4305    
     6    3057.6       5.06414E-04    6.1266        430.83      -6.71138E-19   4.88023E-02    221.66       2.62399E-07    37.114       0.50051       3.45990E-04   1.09150E-13    3927.9       3.67823E-13    996.48      -1.96917E-17   9.46118E-08
                       5.41423E-04   0.32337        48.744        2.6113    
     7    3080.6       6.29182E-04    6.8612        452.49      -5.31490E-19   5.88936E-02    223.82       3.97524E-07    38.024       0.53799       4.67078E-04   2.24751E-13    3968.7       6.13387E-13    1030.5      -2.01007E-17   1.31670E-07
                       6.68691E-04   0.38028        51.185        2.8019    
     8    3103.5       7.77956E-04    7.6663        474.75      -3.99828E-19   7.07718E-02    225.94       5.97764E-07    38.931       0.57754       6.26044E-04   4.56560E-13    4008.6       1.01590E-12    1064.9      -2.03014E-17   1.81983E-07
                       8.22184E-04   0.44564        53.697        3.0025    
     9    3126.4       9.57306E-04    8.5467        497.62      -2.73931E-19   8.46985E-02    228.00       8.92330E-07    39.835       0.61923       8.32868E-04   9.14709E-13    4047.7       1.67056E-12    1099.7      -2.03215E-17   2.49828E-07
                       1.00651E-03   0.52045        56.279        3.2134    
    10    3149.4       1.17173E-03    9.5075        521.07      -1.00809E-19   0.10097        230.02       1.32247E-06    40.735       0.66312       1.09895E-03   1.80711E-12    4085.9       2.72701E-12    1134.7      -2.02260E-17   3.40710E-07
                       1.22696E-03   0.60580        58.931        3.4348    
    11    3172.3       1.42692E-03    10.554        545.12       2.32321E-19   0.11989        231.98       1.94588E-06    41.633       0.70927       1.43890E-03   3.52027E-12    4123.3       4.41853E-12    1170.1      -1.98683E-17   4.61669E-07
                       1.48954E-03   0.70289        61.652        3.6670    
    12    3195.3       1.72938E-03    11.692        569.74       2.60712E-19   0.14184        233.90       2.84241E-06    42.526       0.75775       1.87029E-03   6.76198E-12    4159.7       7.10566E-12    1205.8      -1.92291E-17   6.21647E-07
                       1.80108E-03   0.81300        64.441        3.9104    
    13    3218.2       2.08643E-03    12.926        594.94       3.37144E-19   0.16721        235.76       4.12373E-06    43.415       0.80862       2.41412E-03   1.28092E-11    4195.3       1.13409E-11    1241.7      -1.82781E-17   8.31942E-07
                       2.16931E-03   0.93752        67.299        4.1650    
    14    3241.1       2.50628E-03    14.262        620.70       5.39746E-19   0.19642        237.58       5.94373E-06    44.299       0.86193       3.09537E-03   2.39326E-11    4230.0       1.79639E-11    1277.8      -1.71623E-17   1.10674E-06
                       2.60296E-03    1.0779        70.224        4.4311    
    15    3264.1       2.99808E-03    15.707        647.02       1.07816E-18   0.22996        239.35       8.51172E-06    45.184       0.91776       3.94355E-03   4.41119E-11    4263.9       2.82400E-11    1314.2      -1.59175E-17   1.46375E-06
                       3.11181E-03    1.2358        73.216        4.7091    
    16    3287.0       3.57208E-03    17.266        673.88       2.51200E-18   0.26834        241.07       1.21092E-05    46.069       0.97615       4.99334E-03   8.02271E-11    4296.8       4.40611E-11    1350.8      -1.44001E-17   1.92497E-06
                       3.70685E-03    1.4129        76.273        4.9991    
    17    3310.0       4.23962E-03    18.945        701.28       6.30883E-18   0.31213        242.74       1.71107E-05    46.953        1.0372       6.28539E-03   1.44011E-10    4328.9       6.82336E-11    1387.5      -1.27279E-17   2.51759E-06
                       4.40032E-03    1.6111        79.395        5.3012    
    18    3332.9       5.01325E-03    20.751        729.20       1.62409E-17   0.36194        244.36       2.40276E-05    47.835        1.1008       7.86700E-03   2.55213E-10    4360.1       1.04888E-10    1424.5      -1.06441E-17   3.27501E-06
                       5.20587E-03    1.8322        82.580        5.6158    
    19    3355.8       5.90683E-03    22.689        757.64       4.17524E-17   0.41843        245.94       3.35566E-05    48.715        1.1673       9.79306E-03   4.46642E-10    4390.4       1.60059E-10    1461.5      -8.42426E-18   4.23810E-06
                       6.13863E-03    2.0783        85.828        5.9430    
    20    3378.8       6.93562E-03    24.768        786.58       1.05943E-16   0.48234        247.46       4.66009E-05    49.593        1.2364       1.21269E-02   7.72123E-10    4419.9       2.42489E-10    1498.7      -6.35046E-18   5.45657E-06
                       7.21536E-03    2.3517        89.138        6.2830    
    21    3401.7       8.11636E-03    26.991        816.01       2.64009E-16   0.55442        248.94       6.43236E-05    50.467        1.3085       1.49412E-02   1.31889E-09    4448.4       3.64752E-10    1535.9      -3.95271E-18   6.99067E-06
                       8.45455E-03    2.6545        92.507        6.6360    
    22    3424.7       9.46741E-03    29.368        845.91       6.44868E-16   0.63553        250.37       8.82147E-05    51.338        1.3834       1.83194E-02   2.22669E-09    4476.2       5.44791E-10    1573.2       1.46673E-21   8.91307E-06
                       9.87652E-03    2.9894        95.936        7.0021    
    23    3447.6       1.10088E-02    31.904        876.28       1.54295E-15   0.72654        251.76       1.20167E-04    52.204        1.4612       2.23563E-02   3.71689E-09    4503.0       8.08026E-10    1610.6       1.86900E-19   1.13110E-05
                       1.15036E-02    3.3588        99.422        7.3815    
    24    3470.5       1.27623E-02    34.606        907.09       3.61611E-15   0.82842        253.10       1.63245E-04    53.066        1.5419       2.71597E-02   6.13603E-09    4529.0       1.19023E-09    1648.0       7.23598E-19   1.42887E-05
                       1.33603E-02    3.7654        102.96        7.7743    
    25    3493.5       1.47517E-02    37.480        938.34       8.30290E-15   0.94219        254.40       2.20767E-04    53.922        1.6257       3.28515E-02   1.00206E-08    4554.1       1.74143E-09    1685.4       1.97327E-18   1.79703E-05
                       1.54731E-02    4.2121        106.56        8.1806    
    26    3516.4       1.70026E-02    40.534        970.01       1.86835E-14    1.0689        255.65       2.96747E-04    54.772        1.7125       3.95692E-02   1.61927E-08    4578.4       2.53109E-09    1722.9       4.72794E-18   2.25030E-05
                       1.78713E-02    4.7019        110.21        8.6006    
    27    3539.3       1.95429E-02    43.774        1002.1       4.12180E-14    1.2098        256.86       3.96142E-04    55.616        1.8024       4.74669E-02   2.59004E-08    4601.8       3.65505E-09    1760.2       1.06611E-17   2.80607E-05
                       2.05863E-02    5.2378        113.91        9.0343    
    28    3562.3       2.24024E-02    47.208        1034.5       8.91860E-14    1.3661        258.03       5.25016E-04    56.452        1.8954       5.67175E-02   4.10199E-08    4624.4       5.24460E-09    1797.6       2.31820E-17   3.48478E-05
                       2.36524E-02    5.8230        117.66        9.4819    
    29    3585.2       2.56135E-02    50.842        1067.4       1.89355E-13    1.5390        259.15       6.90566E-04    57.281        1.9916       6.75136E-02   6.43417E-08    4646.2       7.47834E-09    1834.9       4.92798E-17   4.31039E-05
                       2.71066E-02    6.4610        121.46        9.9433    
    30    3608.2       2.92108E-02    54.682        1100.6       3.94660E-13    1.7299        260.23       9.01020E-04    58.103        2.0909       8.00696E-02   9.99733E-08    4667.1       1.05975E-08    1872.1       1.02904E-16   5.31091E-05
                       3.09888E-02    7.1551        125.31        10.419    
    31    3631.1       3.32314E-02    58.736        1134.1       8.07844E-13    1.9404        261.28       1.16680E-03    58.916        2.1935       9.46230E-02   1.53918E-07    4687.3       1.49261E-08    1909.2       2.11604E-16   6.51891E-05
                       3.53420E-02    7.9091        129.20        10.908    
    32    3650.0       3.68641E-02    62.238        1162.0       1.41361E-12    2.1291        262.11       1.43265E-03    59.580        2.2804       0.10823       2.16362E-07    4703.2       1.95917E-08    1939.7       3.78316E-16   7.68122E-05
                       3.92936E-02    8.5773        132.44        11.322    
     1    3723.1       5.53685E-02    76.995        1268.5       2.90158E-11    3.0026        262.77       3.28820E-03    61.471        2.6188       0.18115       1.14717E-06    4756.8       7.16215E-08    2052.1       5.95152E-15   1.53793E-04
                       5.91385E-02    11.560        144.33        12.916    
     2    3796.2       8.07957E-02    94.132        1377.4       3.09708E-10    4.1494        263.04       6.85350E-03    63.249        2.9849       0.29166       4.67826E-06    4803.3       2.23495E-07    2162.8       7.80076E-14   2.90282E-04
                       8.66078E-02    15.313        156.47        14.627    
     3    3869.2       0.11497        113.83        1488.2       2.25080E-09    5.6291        262.97       1.32979E-02    64.912        3.3782       0.45424       1.61472E-05    4843.1       6.20157E-07    2271.1       7.88991E-13   5.22002E-04
                       0.12383        19.970        168.78        16.453    
     4    3942.3       0.16000        136.24        1600.4       1.26174E-08    7.5080        262.57       2.43794E-02    66.457        3.7980       0.68724       4.80076E-05    4876.6       1.57601E-06    2376.7       6.20273E-12   9.01010E-04
                       0.17329        25.669        181.20        18.389    
     5    4015.4       0.21829        161.52        1713.5       5.82642E-08    9.8590        261.89       4.26500E-02    67.883        4.2438        1.0134       1.26696E-04    4904.6       3.72013E-06    2479.2       3.87409E-11   1.50109E-03
                       0.23788        32.558        193.67        20.430    
     6    4088.5       0.29251        189.78        1826.9       2.30282E-07    12.760        260.93       7.17001E-02    69.188        4.7146        1.4604       3.03834E-04    4927.4       8.27035E-06    2578.3       1.98141E-10   2.42422E-03
                       0.32087        40.787        206.14        22.570    
     7    4161.6       0.38564        221.14        1940.1       8.06864E-07    16.296        259.73       0.11644        70.375        5.2089        2.0615       6.73809E-04    4945.7       1.74844E-05    2673.8       8.59014E-10   3.80827E-03
                       0.42597        50.511        218.58        24.801    
     8    4234.7       0.50089        255.66        2052.8       2.51158E-06    20.555        258.31       0.18343        71.447        5.7249        2.8554       1.39998E-03    4959.9       3.50075E-05    2765.3       3.24112E-09   5.83577E-03
                       0.55724        61.881        230.91        27.116    
     9    4307.7       0.64175        293.40        2164.4       7.04888E-06    25.628        256.69       0.28120        72.405        6.2611        3.8873       2.75208E-03    4970.7       6.64566E-05    2852.8       1.08689E-08   8.74401E-03
                       0.71917        75.050        243.14        29.507    
    10    4380.0       0.80970        333.90        2273.3       1.79031E-05    31.535        254.90       0.41870        73.245        6.8093        5.1913       5.11857E-03    4978.2       1.19584E-04    2935.0       3.24496E-08   1.27759E-02
                       0.91403        89.981        255.13        31.937    
     1    4393.1       0.84399        341.98        2294.0       2.06555E-05    32.763        255.20       0.44910        73.597        6.9248        5.4702       5.67699E-03    4979.8       1.31645E-04    2950.7       3.81601E-08   1.36205E-02
                       0.95458        93.066        257.77        32.451    
     2    4406.3       0.87944        350.18        2314.7       2.38159E-05    34.028        255.49       0.48143        73.946        7.0420        5.7614       6.29151E-03    4981.2       1.44825E-04    2966.2       4.48248E-08   1.45148E-02
                       0.99659        96.227        260.41        32.967    
     3    4419.4       0.91609        358.48        2335.4       2.74413E-05    35.330        255.79       0.51579        74.292        7.1621        6.0655       6.96718E-03    4982.5       1.59212E-04    2981.6       5.25948E-08   1.54613E-02
                        1.0401        99.464        263.04        33.487    
     4    4432.5       0.95394        366.91        2355.9       3.15956E-05    36.669        256.08       0.55227        74.636        7.2824        6.3827       7.70942E-03    4983.7       1.74906E-04    2996.9       6.16436E-08   1.64627E-02
                        1.0851        102.78        265.70        34.011    
     5    4445.6       0.99305        375.45        2376.4       3.63509E-05    38.047        256.36       0.59100        74.978        7.4030        6.7136       8.52407E-03    4984.9       1.92010E-04    3011.9       7.21701E-08   1.75216E-02
                        1.1317        106.17        268.34        34.538    
     6    4458.8        1.0334        384.10        2396.8       4.17882E-05    39.463        256.65       0.63208        75.318        7.5240        7.0585       9.41741E-03    4985.9       2.10635E-04    3026.9       8.44025E-08   1.86410E-02
                        1.1800        109.65        270.97        35.068    
     7    4471.9        1.0751        392.87        2417.2       4.79985E-05    40.919        256.93       0.67564        75.655        7.6456        7.4180       1.03962E-02    4986.9       2.30900E-04    3041.6       9.86014E-08   1.98238E-02
                        1.2298        113.20        273.60        35.601    
     8    4485.0        1.1181        401.75        2437.4       5.50833E-05    42.416        257.21       0.72179        75.989        7.7679        7.7924       1.14676E-02    4987.8       2.52931E-04    3056.2       1.15065E-07   2.10732E-02
                        1.2814        116.83        276.21        36.138    
     9    4498.1        1.1625        410.74        2457.6       6.31566E-05    43.953        257.49       0.77066        76.321        7.8909        8.1822       1.26395E-02    4988.6       2.76862E-04    3070.7       1.34133E-07   2.23922E-02
                        1.3347        120.55        278.82        36.677    
    10    4511.3        1.2083        419.85        2477.7       7.23455E-05    45.531        257.76       0.82239        76.651        8.0146        8.5880       1.39201E-02    4989.3       3.02837E-04    3084.9       1.56192E-07   2.37843E-02
                        1.3898        124.34        281.42        37.220    
    11    4524.4        1.2554        429.07        2497.7       8.27919E-05    47.152        258.03       0.87711        76.979        8.1391        9.0101       1.53184E-02    4989.9       3.31005E-04    3099.1       1.81684E-07   2.52530E-02
                        1.4467        128.22        284.01        37.766    
    12    4537.5        1.3041        438.41        2517.6       9.46538E-05    48.815        258.30       0.93495        77.304        8.2646        9.4490       1.68438E-02    4990.5       3.61529E-04    3113.0       2.11109E-07   2.68018E-02
                        1.5054        132.19        286.60        38.314    
    13    4550.6        1.3542        447.86        2537.4       1.08107E-04    50.522        258.57       0.99608        77.627        8.3909        9.9053       1.85065E-02    4990.9       3.94578E-04    3126.8       2.45036E-07   2.84344E-02
                        1.5661        136.23        289.18        38.866    
    14    4563.8        1.4058        457.42        2557.1       1.23346E-04    52.273        258.84        1.0606        77.947        8.5180        10.379       2.03174E-02    4991.3       4.30334E-04    3140.5       2.84109E-07   3.01548E-02
                        1.6287        140.37        291.76        39.420    
    15    4576.9        1.4590        467.09        2576.7       1.40589E-04    54.069        259.10        1.1288        78.265        8.6460        10.872       2.22879E-02    4991.6       4.68988E-04    3154.0       3.29057E-07   3.19669E-02
                        1.6932        144.59        294.33        39.977    
    16    4590.0        1.5137        476.87        2596.3       1.60074E-04    55.910        259.36        1.2007        78.581        8.7747        11.383       2.44305E-02    4991.9       5.10743E-04    3167.3       3.80705E-07   3.38750E-02
                        1.7598        148.89        296.89        40.537    
    17    4603.1        1.5701        486.76        2615.7       1.82067E-04    57.796        259.62        1.2765        78.895        8.9043        11.914       2.67582E-02    4992.0       5.55813E-04    3180.5       4.39982E-07   3.58833E-02
                        1.8285        153.29        299.44        41.099    
    18    4616.3        1.6281        496.77        2635.0       2.06861E-04    59.730        259.88        1.3564        79.206        9.0346        12.465       2.92849E-02    4992.0       6.04423E-04    3193.5       5.07938E-07   3.79963E-02
                        1.8993        157.77        301.98        41.664    
    19    4629.4        1.6877        506.88        2654.3       2.34780E-04    61.710        260.14        1.4405        79.515        9.1657        13.036       3.20255E-02    4992.0       6.56814E-04    3206.3       5.85754E-07   4.02186E-02
                        1.9722        162.34        304.52        42.232    
    20    4642.5        1.7491        517.10        2673.4       2.66179E-04    63.738        260.40        1.5291        79.822        9.2975        13.628       3.49956E-02    4991.9       7.13238E-04    3219.0       6.74759E-07   4.25550E-02
                        2.0474        167.00        307.04        42.802    
    21    4655.6        1.8122        527.43        2692.4       3.01451E-04    65.814        260.66        1.6223        80.127        9.4300        14.242       3.82121E-02    4991.6       7.73959E-04    3231.5       7.76443E-07   4.50105E-02
                        2.1247        171.74        309.56        43.375    
    22    4668.8        1.8770        537.87        2711.3       3.41025E-04    67.940        260.91        1.7204        80.429        9.5632        14.877       4.16925E-02    4991.3       8.39259E-04    3243.9       8.92483E-07   4.75901E-02
                        2.2044        176.58        312.06        43.950    
    23    4681.9        1.9436        548.41        2730.1       3.85376E-04    70.115        261.17        1.8235        80.729        9.6970        15.536       4.54556E-02    4990.9       9.09433E-04    3256.1       1.02476E-06   5.02992E-02
                        2.2864        181.51        314.55        44.527    
    24    4695.0        2.0121        559.06        2748.8       4.35020E-04    72.339        261.42        1.9318        81.028        9.8316        16.217       4.95213E-02    4990.4       9.84791E-04    3268.2       1.17536E-06   5.31433E-02
                        2.3708        186.54        317.03        45.107    
    25    4708.1        2.0824        569.81        2767.4       4.90525E-04    74.615        261.67        2.0455        81.324        9.9668        16.923       5.39105E-02    4989.8       1.06566E-03    3280.1       1.34667E-06   5.61279E-02
                        2.4576        191.65        319.50        45.690    
    26    4721.3        2.1546        580.67        2785.8       5.52512E-04    76.941        261.93        2.1650        81.618        10.103        17.652       5.86453E-02    4989.1       1.15238E-03    3291.9       1.54129E-06   5.92590E-02
                        2.5469        196.86        321.92        46.275    
    27    4734.4        2.2288        591.64        2804.2       6.21658E-04    79.320        262.18        2.2903        81.910        10.239        18.407       6.37493E-02    4988.2       1.24531E-03    3303.5       1.76217E-06   6.25425E-02
                        2.6387        202.16        324.36        46.861    
    28    4747.5        2.3049        602.70        2822.4       6.98702E-04    81.751        262.43        2.4217        82.200        10.376        19.187       6.92470E-02    4987.3       1.34484E-03    3314.9       2.01258E-06   6.59846E-02
                        2.7331        207.55        326.80        47.450    
    29    4760.7        2.3829        613.87        2840.5       7.84450E-04    84.234        262.68        2.5594        82.488        10.514        19.994       7.51645E-02    4986.2       1.45136E-03    3326.2       2.29615E-06   6.95917E-02
                        2.8301        213.04        329.24        48.041    
    30    4773.8        2.4630        625.14        2858.5       8.79779E-04    86.771        262.93        2.7038        82.773        10.653        20.827       8.15293E-02    4985.1       1.56527E-03    3337.4       2.61691E-06   7.33706E-02
                        2.9297        218.62        331.68        48.634    
    31    4786.9        2.5452        636.50        2876.4       9.85640E-04    89.361        263.18        2.8550        83.057        10.792        21.687       8.83703E-02    4983.8       1.68703E-03    3348.4       2.97935E-06   7.73278E-02
                        3.0321        224.29        334.13        49.229    
    32    4800.0        2.6294        647.97        2894.1       1.10307E-03    92.006        263.43        3.0133        83.339        10.931        22.575       9.57179E-02    4982.3       1.81708E-03    3359.2       3.38844E-06   8.14705E-02
                        3.1371        230.07        336.57        49.825    
    33    4813.2        2.7158        659.53        2911.7       1.23319E-03    94.706        263.68        3.1789        83.620        11.071        23.492       0.10360        4980.8       1.95590E-03    3369.9       3.84966E-06   8.58059E-02
                        3.2450        235.93        339.01        50.423    
    34    4826.3        2.8043        671.20        2929.2       1.37722E-03    97.461        263.93        3.3522        83.898        11.212        24.438       0.11206        4979.0       2.10399E-03    3380.4       4.36909E-06   9.03414E-02
                        3.3557        241.89        341.44        51.023    
    35    4839.4        2.8949        682.95        2946.6       1.53647E-03    100.27        264.18        3.5333        84.174        11.354        25.414       0.12113        4977.2       2.26187E-03    3390.8       4.95344E-06   9.50847E-02
                        3.4693        247.95        343.87        51.624    
    36    4852.5        2.9878        694.80        2963.8       1.71237E-03    103.14        264.43        3.7226        84.449        11.495        26.420       0.13084        4975.2       2.43009E-03    3401.1       5.61010E-06   0.10004    
                        3.5858        254.11        346.29        52.226    
    37    4865.7        3.0830        706.75        2981.0       1.90646E-03    106.06        264.68        3.9204        84.721        11.638        27.458       0.14123        4973.0       2.60920E-03    3411.2       6.34724E-06   0.10523    
                        3.7053        260.36        348.70        52.830    
    38    4878.8        3.1804        718.78        2998.0       2.12040E-03    109.04        264.93        4.1269        84.992        11.776        28.527       0.15235        4970.7       2.79981E-03    3421.1       7.17381E-06   0.11064    
                        3.8278        266.71        351.11        53.436    
    39    4891.9        3.2801        730.91        3014.8       2.35597E-03    112.08        265.19        4.3424        85.262        11.916        29.628       0.16423        4968.2       3.00253E-03    3430.9       8.09968E-06   0.11630    
                        3.9533        273.15        353.49        54.042    
    40    4905.0        3.3822        743.13        3031.6       2.61510E-03    115.18        265.44        4.5673        85.529        12.058        30.762       0.17693        4965.5       3.21801E-03    3440.6       9.13567E-06   0.12220    
                        4.0820        279.70        355.86        54.650    
    41    4918.2        3.4867        755.44        3048.2       2.89988E-03    118.33        265.70        4.8018        85.795        12.201        31.930       0.19048        4962.7       3.44691E-03    3450.1       1.02936E-05   0.12836    
                        4.2138        286.34        358.22        55.259    
    42    4931.3        3.5935        767.83        3064.6       3.21251E-03    121.55        265.95        5.0464        86.059        12.345        33.132       0.20494        4959.7       3.68994E-03    3459.5       1.15866E-05   0.13479    
                        4.3489        293.07        360.55        55.868    
    43    4944.4        3.7028        780.31        3081.0       3.55541E-03    124.82        266.21        5.3012        86.322        12.491        34.369       0.22036        4956.5       3.94782E-03    3468.7       1.30288E-05   0.14150    
                        4.4871        299.91        362.88        56.479    
    44    4957.5        3.8146        792.88        3097.2       3.93113E-03    128.15        266.48        5.5666        86.583        12.637        35.641       0.23679        4953.1       4.22130E-03    3477.8       1.46357E-05   0.14850    
                        4.6287        306.84        365.18        57.091    
    45    4970.7        3.9289        805.52        3113.2       4.34243E-03    131.54        266.74        5.8430        86.842        12.785        36.949       0.25429        4949.6       4.51117E-03    3486.8       1.64244E-05   0.15579    
                        4.7736        313.87        367.47        57.704    
    46    4983.8        4.0457        818.26        3129.2       4.79226E-03    135.00        267.01        6.1307        87.100        12.933        38.295       0.27291        4945.8       4.81824E-03    3495.6       1.84133E-05   0.16339    
                        4.9219        321.00        369.75        58.317    
    47    4996.9        4.1650        831.07        3145.0       5.28377E-03    138.51        267.28        6.4301        87.356        13.082        39.677       0.29271        4941.8       5.14337E-03    3504.3       2.06228E-05   0.17131    
                        5.0736        328.22        372.01        58.931    
    48    5010.0        4.2870        843.96        3160.6       5.82033E-03    142.08        267.56        6.7414        87.611        13.232        41.098       0.31377        4937.7       5.48742E-03    3512.8       2.30746E-05   0.17955    
                        5.2287        335.55        374.26        59.546    
    49    5023.2        4.4116        856.93        3176.1       6.40554E-03    145.72        267.84        7.0652        87.864        13.382        42.558       0.33613        4933.3       5.85131E-03    3521.2       2.57928E-05   0.18814    
                        5.3874        342.97        376.49        60.161    
    50    5036.3        4.5388        869.97        3191.5       7.04324E-03    149.42        268.13        7.4016        88.116        13.533        44.056       0.35988        4928.7       6.23599E-03    3529.5       2.88032E-05   0.19707    
                        5.5496        350.49        378.71        60.777    
    51    5049.4        4.6688        883.10        3206.8       7.73753E-03    153.17        268.42        7.7512        88.367        13.684        45.595       0.38508        4923.8       6.64244E-03    3537.6       3.21341E-05   0.20637    
                        5.7154        358.10        380.90        61.394    
    52    5062.6        4.8014        896.29        3221.9       8.49278E-03    156.99        268.72        8.1143        88.616        13.836        47.175       0.41180        4918.8       7.07166E-03    3545.7       3.58160E-05   0.21605    
                        5.8849        365.81        383.06        62.011    
    53    5075.7        4.9368        909.56        3236.9       9.31363E-03    160.88        269.03        8.4912        88.864        13.989        48.796       0.44013        4913.7       7.52472E-03    3553.5       3.98820E-05   0.22611    
                        6.0580        373.62        385.21        62.628    
    54    5088.8        5.0750        922.90        3251.7       1.02050E-02    164.82        269.34        8.8824        89.111        14.141        50.459       0.47014        4908.4       8.00269E-03    3561.3       4.43679E-05   0.23657    
                        6.2349        381.53        387.33        63.245    
    55    5101.9        5.2159        936.31        3266.4       1.11722E-02    168.83        269.67        9.2883        89.356        14.294        52.164       0.50191        4902.8       8.50670E-03    3568.9       4.93124E-05   0.24744    
                        6.4155        389.54        389.42        63.863    
    56    5110.0        5.3038        944.58        3275.4       1.18033E-02    171.32        269.87        9.5449        89.506        14.387        53.233       0.52230        4899.3       8.82871E-03    3573.5       5.25661E-05   0.25429    
                        6.5282        394.51        390.69        64.244    
     1    5157.4        5.8242        991.60        3324.5       1.61855E-02    185.81        269.12        11.120        89.705        14.867        59.603       0.65426        4877.9       1.09108E-02    3597.5       7.69336E-05   0.29781    
                        7.1916        422.99        396.90        66.182    
     2    5204.7        6.3794        1039.4        3371.9       2.19375E-02    201.05        268.44        12.900        89.878        15.346        66.525       0.81373        4854.4       1.33965E-02    3620.1       1.11024E-04   0.34744    
                        7.9014        452.63        402.80        68.109    
     3    5252.1        6.9704        1087.8        3417.7       2.94108E-02    217.05        267.84        14.901        90.027        15.823        74.025        1.0052        4830.1       1.63470E-02    3641.1       1.58081E-04   0.40384    
                        8.6589        483.40        408.43        70.018    
     4    5299.4        7.5980        1136.8        3461.8       3.90276E-02    233.81        267.34        17.144        90.153        16.298        82.127        1.2336        4804.1       1.98303E-02    3660.6       2.22231E-04   0.46769    
                        9.4654        515.28        413.80        71.906    
     5    5346.8        8.2630        1186.4        3504.2       5.12913E-02    251.33        266.97        19.648        90.259        16.770        90.857        1.5046        4776.3       2.39212E-02    3678.6       3.08661E-04   0.53973    
                        10.322        548.25        418.99        73.771    
     6    5394.1        8.9660        1236.4        3545.0       6.67966E-02    269.61        266.74        22.433        90.347        17.236        100.24        1.8243        4747.8       2.87014E-02    3695.1       4.23839E-04   0.62074    
                        11.230        582.28        424.04        75.612    
     7    5441.5        9.7077        1286.9        3584.1       8.62417E-02    288.64        266.66        25.521        90.418        17.695        110.29        2.1994        4719.5       3.42604E-02    3710.3       5.75750E-04   0.71155    
                        12.190        617.34        428.92        77.428    
     8    5488.8        10.489        1337.6        3621.5       0.11044        308.42        266.74        28.932        90.476        18.146        121.04        2.6373        4691.3       4.06954E-02    3723.9       7.74168E-04   0.81303    
                        13.203        653.40        433.63        79.217    
     9    5536.2        11.309        1388.6        3657.3       0.14033        328.93        266.99        32.688        90.523        18.590        132.50        3.1459        4664.1       4.81114E-02    3736.2       1.03096E-03   0.92607    
                        14.269        690.42        438.15        80.977    
    10    5583.5        12.169        1439.8        3691.4       0.17700        350.17        267.41        36.811        90.562        19.031        144.70        3.7339        4638.2       5.66216E-02    3747.0       1.36041E-03    1.0517    
                        15.390        728.37        442.48        82.707    
    11    5630.9        13.069        1491.1        3724.0       0.22169        372.13        268.01        41.324        90.595        19.467        157.64        4.4107        4613.9       6.63474E-02    3756.4       1.77961E-03    1.1908    
                        16.565        767.19        446.60        84.468    
    12    5678.2        14.010        1542.5        3754.9       0.27580        394.78        268.77        46.248        90.627        19.898        171.35        5.1861        4591.7       7.74187E-02    3764.4       2.30879E-03    1.3444    
                        17.796        806.86        450.53        86.154    
    13    5725.6        14.991        1593.8        3784.1       0.34091        418.12        269.70        51.606        90.658        20.323        185.84        6.0710        4572.0       8.99737E-02    3771.0       2.97160E-03    1.5137    
                        19.081        847.33        454.27        87.795    
    14    5772.9        16.012        1645.1        3811.8       0.41883        442.12        270.77        57.420        90.693        20.742        201.12        7.0765        4555.1       0.10416        3776.3       3.79591E-03    1.6998    
                        20.422        888.54        457.85        89.398    
    15    5820.3        17.072        1696.3        3837.9       0.51153        466.76        271.98        63.712        90.734        21.154        217.20        8.2147        4541.2       0.12013        3780.3       4.81417E-03    1.9038    
                        21.817        930.45        461.25        90.966    
    16    5840.0        17.521        1717.5        3848.3       0.55437        477.20        272.51        66.463        90.752        21.323        224.11        8.7262        4536.2       0.12726        3781.6       5.28831E-03    1.9923    
                        22.412        948.19        462.62        91.613    
     1    5854.9        17.881        1734.1        3856.3       0.59002        485.47        273.57        68.680        90.934        21.473        229.63        9.1449        4532.9       0.13308        3782.6       5.68680E-03    2.0640    
                        22.889        962.19        463.95        92.181    
     2    5869.8        18.244        1750.7        3864.1       0.62763        493.81        274.65        70.952        91.118        21.622        235.24        9.5799        4529.9       0.13912        3783.6       6.11176E-03    2.1378    
                        23.371        976.26        465.27        92.746    
     3    5884.8        18.612        1767.3        3871.8       0.66729        502.21        275.76        73.279        91.304        21.770        240.93        10.032        4527.4       0.14538        3784.4       6.56469E-03    2.2136    
                        23.860        990.38        466.57        93.308    
     4    5899.7        18.984        1783.8        3879.3       0.70908        510.68        276.89        75.662        91.494        21.918        246.71        10.501        4525.2       0.15187        3785.0       7.04714E-03    2.2917    
                        24.355        1004.6        467.86        93.867    
     5    5914.6        19.361        1800.3        3886.7       0.75309        519.21        278.05        78.101        91.687        22.066        252.58        10.988        4523.4       0.15860        3785.6       7.56077E-03    2.3718    
                        24.855        1018.8        469.12        94.423    
     6    5929.5        19.742        1816.8        3893.8       0.79943        527.81        279.24        80.598        91.883        22.213        258.53        11.493        4521.9       0.16556        3786.0       8.10727E-03    2.4543    
                        25.362        1033.1        470.37        94.976    
     7    5944.5        20.127        1833.3        3900.8       0.84820        536.46        280.45        83.153        92.082        22.359        264.57        12.017        4520.9       0.17278        3786.6       8.68844E-03    2.5390    
                        25.875        1047.5        471.61        95.526    
     8    5959.4        20.516        1849.7        3907.7       0.89948        545.18        281.68        85.766        92.286        22.505        270.70        12.560        4520.3       0.18025        3787.0       9.30614E-03    2.6260    
                        26.394        1061.9        472.82        96.072    
     9    5974.3        20.910        1866.1        3914.3       0.95340        553.95        282.94        88.438        92.492        22.650        276.91        13.123        4520.0       0.18798        3787.2       9.96231E-03    2.7153    
                        26.918        1076.3        474.02        96.616    
    10    5989.2        21.308        1882.4        3920.8        1.0100        562.79        284.22        91.171        92.703        22.795        283.21        13.707        4520.1       0.19597        3787.1       1.06590E-02    2.8071    
                        27.449        1090.8        475.21        97.156    
    11    6004.1        21.710        1898.7        3927.2        1.0695        571.68        285.52        93.965        92.918        22.939        289.60        14.311        4520.7       0.20424        3786.9       1.13982E-02    2.9014    
                        27.985        1105.3        476.37        97.692    
    12    6019.1        22.116        1914.9        3933.3        1.1320        580.63        286.84        96.820        93.136        23.082        296.08        14.937        4521.6       0.21280        3786.6       1.21823E-02    2.9981    
                        28.528        1119.9        477.52        98.226    
    13    6034.0        22.527        1931.1        3939.3        1.1975        589.63        288.19        99.736        93.359        23.225        302.64        15.584        4522.8       0.22163        3786.2       1.30135E-02    3.0974    
                        29.076        1134.6        478.66        98.757    
    14    6048.9        22.942        1947.3        3945.2        1.2663        598.69        289.55        102.72        93.587        23.367        309.29        16.254        4524.5       0.23077        3785.7       1.38941E-02    3.1992    
                        29.630        1149.2        479.78        99.284    
    15    6063.8        23.361        1963.4        3950.8        1.3383        607.81        290.94        105.76        93.818        23.509        316.03        16.947        4526.5       0.24020        3785.1       1.48266E-02    3.3037    
                        30.190        1164.0        480.89        99.808    
    16    6078.8        23.784        1979.4        3956.4        1.4138        616.98        292.34        108.87        94.055        23.650        322.86        17.664        4528.9       0.24995        3784.4       1.58137E-02    3.4109    
                        30.756        1178.7        481.98        100.33    
    17    6093.7        24.211        1995.4        3961.7        1.4929        626.20        293.76        112.04        94.296        23.790        329.77        18.404        4531.6       0.26000        3783.6       1.68579E-02    3.5207    
                        31.327        1193.5        483.05        100.85    
    18    6108.6        24.643        2011.3        3966.9        1.5757        635.47        295.20        115.27        94.542        23.930        336.77        19.169        4534.7       0.27039        3782.7       1.79620E-02    3.6334    
                        31.905        1208.3        484.11        101.36    
    19    6123.5        25.078        2027.2        3971.9        1.6623        644.79        296.65        118.58        94.792        24.070        343.86        19.960        4538.1       0.28110        3781.7       1.91290E-02    3.7489    
                        32.488        1223.2        485.16        101.86    
    20    6138.4        25.518        2043.1        3976.8        1.7530        654.16        298.12        121.95        95.048        24.208        351.03        20.776        4541.9       0.29215        3780.6       2.03617E-02    3.8672    
                        33.076        1238.1        486.19        102.33    
    21    6153.4        25.961        2058.8        3981.5        1.8478        663.58        299.61        125.38        95.309        24.346        358.29        21.619        4546.0       0.30354        3779.5       2.16633E-02    3.9885    
                        33.670        1253.0        487.21        102.82    
    22    6168.3        26.409        2074.6        3986.1        1.9468        673.04        301.10        128.89        95.575        24.484        365.64        22.488        4550.5       0.31528        3778.3       2.30370E-02    4.1127    
                        34.270        1268.0        488.21        103.31    
    23    6183.2        26.861        2090.2        3990.5        2.0503        682.56        302.62        132.46        95.846        24.621        373.07        23.385        4555.2       0.32739        3777.1       2.44861E-02    4.2399    
                        34.876        1282.9        489.21        103.80    
    24    6198.1        27.316        2105.8        3994.7        2.1583        692.11        304.14        136.10        96.123        24.757        380.59        24.310        4560.2       0.33986        3775.8       2.60140E-02    4.3701    
                        35.487        1297.9        490.18        104.29    
    25    6213.0        27.776        2121.3        3998.8        2.2711        701.71        305.68        139.81        96.405        24.893        388.19        25.264        4565.6       0.35271        3774.4       2.76242E-02    4.5035    
                        36.103        1312.9        491.15        104.79    
    26    6228.0        28.239        2136.8        4002.8        2.3889        711.36        307.22        143.59        96.692        25.028        395.88        26.247        4571.2       0.36594        3773.0       2.93204E-02    4.6400    
                        36.725        1328.0        492.11        105.28    
    27    6242.9        28.706        2152.2        4006.6        2.5116        721.04        308.78        147.44        96.986        25.163        403.65        27.260        4577.1       0.37956        3771.5       3.11065E-02    4.7797    
                        37.353        1343.0        493.05        105.77    
    28    6257.8        29.177        2167.5        4010.2        2.6396        730.77        310.35        151.36        97.284        25.296        411.51        28.304        4583.2       0.39358        3770.0       3.29863E-02    4.9227    
                        37.985        1358.1        493.98        106.27    
    29    6272.7        29.652        2182.8        4013.7        2.7731        740.54        311.93        155.35        97.589        25.430        419.45        29.378        4589.6       0.40801        3768.5       3.49639E-02    5.0689    
                        38.624        1373.2        494.90        106.76    
    30    6287.7        30.131        2197.9        4017.1        2.9121        750.34        313.51        159.41        97.899        25.562        427.47        30.485        4596.2       0.42285        3766.7       3.70434E-02    5.2185    
                        39.267        1388.3        495.81        107.25    
    31    6302.6        30.614        2213.0        4020.3        3.0568        760.18        315.10        163.54        98.214        25.694        435.58        31.623        4603.0       0.43811        3764.9       3.92292E-02    5.3714    
                        39.916        1403.4        496.71        107.74    
    32    6317.5        31.100        2228.1        4023.4        3.2075        770.06        316.70        167.75        98.536        25.826        443.77        32.795        4610.1       0.45381        3763.1       4.15258E-02    5.5278    
                        40.569        1418.6        497.60        108.23    
    33    6332.4        31.590        2243.0        4026.3        3.3643        779.98        318.31        172.03        98.863        25.957        452.04        34.000        4617.4       0.46994        3761.5       4.39376E-02    5.6877    
                        41.228        1433.7        498.48        108.71    
    34    6347.3        32.084        2257.9        4029.1        3.5275        789.92        319.92        176.39        99.196        26.087        460.39        35.239        4624.8       0.48652        3759.9       4.64694E-02    5.8511    
                        41.892        1448.9        499.35        109.19    
    35    6362.3        32.581        2272.7        4031.8        3.6972        799.91        321.53        180.81        99.535        26.217        468.83        36.513        4632.4       0.50355        3758.3       4.91261E-02    6.0181    
                        42.562        1464.0        500.21        109.67    
    36    6377.2        33.082        2287.5        4034.4        3.8735        809.92        323.15        185.31        99.880        26.346        477.34        37.822        4640.2       0.52105        3756.7       5.19127E-02    6.1886    
                        43.236        1479.2        501.06        110.14    
    37    6392.1        33.586        2302.1        4036.8        4.0568        819.96        324.78        189.89        100.23        26.474        485.94        39.167        4648.1       0.53901        3755.2       5.48344E-02    6.3629    
                        43.915        1494.3        501.90        110.61    
    38    6407.0        34.094        2316.7        4039.1        4.2472        830.04        326.41        194.54        100.59        26.602        494.62        40.549        4656.1       0.55746        3753.7       5.78964E-02    6.5409    
                        44.599        1509.5        502.74        111.08    
    39    6422.0        34.605        2331.2        4041.3        4.4449        840.14        328.04        199.27        100.95        26.729        503.37        41.968        4664.3       0.57639        3752.2       6.11042E-02    6.7226    
                        45.288        1524.6        503.57        111.55    
    40    6436.9        35.120        2345.6        4043.3        4.6501        850.27        329.68        204.07        101.32        26.856        512.20        43.425        4672.6       0.59582        3750.8       6.44635E-02    6.9082    
                        45.981        1539.8        504.39        112.01    
    41    6451.8        35.638        2359.9        4045.3        4.8630        860.42        331.32        208.94        101.69        26.982        521.11        44.921        4680.9       0.61576        3749.3       6.79799E-02    7.0976    
                        46.679        1554.9        505.20        112.46    
    42    6466.7        36.160        2374.1        4047.1        5.0839        870.60        332.96        213.89        102.07        27.108        530.10        46.455        4689.4       0.63620        3747.9       7.16594E-02    7.2909    
                        47.382        1570.0        506.01        112.92    
    43    6481.6        36.685        2388.3        4048.8        5.3130        880.81        334.60        218.92        102.46        27.233        539.17        48.029        4697.9       0.65717        3746.5       7.55082E-02    7.4882    
                        48.090        1585.2        506.82        113.37    
    44    6496.6        37.213        2402.3        4050.4        5.5505        891.03        336.25        224.03        102.85        27.357        548.31        49.643        4706.5       0.67867        3745.2       7.95323E-02    7.6895    
                        48.802        1600.3        507.61        113.82    
    45    6511.5        37.744        2416.3        4051.9        5.7966        901.28        337.90        229.21        103.25        27.481        557.52        51.299        4715.1       0.70070        3743.8       8.37383E-02    7.8948    
                        49.519        1615.4        508.41        114.26    
    46    6526.4        38.279        2430.2        4053.3        6.0515        911.55        339.55        234.47        103.65        27.604        566.81        52.996        4723.8       0.72328        3742.5       8.81327E-02    8.1042    
                        50.240        1630.5        509.19        114.71    
    47    6541.3        38.817        2444.0        4054.6        6.3156        921.84        341.21        239.80        104.06        27.726        576.18        54.735        4732.5       0.74642        3741.3       9.27222E-02    8.3178    
                        50.965        1645.5        509.98        115.15    
    48    6556.2        39.357        2457.7        4055.9        6.5889        932.15        342.87        245.22        104.47        27.849        585.62        56.516        4741.2       0.77011        3740.1       9.75137E-02    8.5355    
                        51.695        1660.6        510.76        115.59    
    49    6570.0        39.858        2470.2        4056.9        6.8492        941.66        344.40        250.27        104.86        27.960        594.37        58.196        4749.2       0.79245        3739.0       0.10211        8.7397    
                        52.371        1674.5        511.48        115.99    
     1    6641.4        42.394        2531.4        4060.9        8.2942        989.10        347.41        276.64        105.72        28.395        639.03        67.205        4786.9       0.91263        3733.8       0.12884        9.8414    
                        55.757        1742.4        513.51        117.48    
     2    6712.7        44.981        2590.6        4063.4        9.9732        1036.7        350.17        304.66        106.60        28.812        685.14        77.201        4823.8        1.0460        3729.7       0.16112        11.041    
                        59.216        1809.9        515.50        118.91    
     3    6784.1        47.614        2647.7        4064.8        11.912        1084.5        352.69        334.34        107.49        29.214        732.59        88.237        4859.5        1.1934        3727.3       0.19979        12.342    
                        62.740        1876.8        517.48        120.26    
     4    6855.4        50.288        2702.5        4065.5        14.137        1132.2        354.97        365.66        108.39        29.601        781.31        100.37        4893.9        1.3556        3727.3       0.24579        13.749    
                        66.324        1943.0        519.49        121.53    
     5    6926.8        52.997        2755.1        4065.7        16.676        1179.7        357.02        398.61        109.28        29.974        831.18        113.64        4927.0        1.5333        3729.6       0.30012        15.265    
                        69.958        2008.2        521.54        122.74    
     6    6998.1        55.735        2805.4        4065.8        19.557        1227.1        358.86        433.16        110.17        30.335        882.10        128.10        4958.8        1.7273        3734.0       0.36385        16.893    
                        73.636        2072.4        523.66        123.91    
     7    7069.5        58.497        2853.3        4066.2        22.808        1274.1        360.48        469.28        111.03        30.684        933.97        143.80        4989.8        1.9382        3740.1       0.43815        18.635    
                        77.351        2135.4        525.87        125.04    
     8    7140.8        61.276        2898.9        4067.0        26.460        1320.8        361.88        506.92        111.88        31.024        986.67        160.77        5020.1        2.1668        3748.2       0.52425        20.495    
                        81.094        2197.2        528.17        126.14    
     9    7212.2        64.068        2942.2        4068.5        30.540        1366.9        363.06        546.03        112.70        31.354        1040.1        179.05        5050.1        2.4135        3758.1       0.62344        22.475    
                        84.860        2257.4        530.59        127.22    
    10    7283.5        66.866        2983.1        4070.9        35.080        1412.5        363.98        586.57        113.48        31.677        1094.1        198.67        5080.0        2.6790        3769.7       0.73710        24.575    
                        88.639        2316.2        533.12        128.26    
    11    7300.0        67.506        2992.2        4071.6        36.188        1422.9        364.19        596.09        113.66        31.750        1106.6        203.37        5086.8        2.7426        3772.6       0.76497        25.066    
                        89.514        2329.8        533.72        128.51    
     1    7373.1        70.361        3031.1        4075.4        41.445        1468.6        364.44        639.20        114.32        32.060        1162.4        225.13        5117.3        3.0380        3786.1       0.90142        27.366    
                        93.375        2387.6        536.32        129.51    
     2    7446.2        73.210        3067.7        4080.5        47.247        1513.4        364.38        683.63        114.93        32.364        1218.5        248.33        5147.9        3.3540        3801.1        1.0564        29.796    
                        97.234        2443.7        539.04        130.49    
     3    7482.5        74.612        3085.0        4083.5        50.328        1535.4        364.27        706.11        115.21        32.513        1246.4        260.36        5163.0        3.5181        3809.0        1.1397        31.031    
                        99.148        2471.2        540.44        130.98    
     1    7555.6        77.444        3118.2        4090.5        56.999        1579.0        363.72        752.38        115.75        32.809        1302.8        285.74        5193.5        3.8654        3825.7        1.3254        33.658    
                        102.99        2524.5        543.33        131.93    
     2    7628.7        80.257        3149.3        4098.8        64.285        1621.6        362.81        799.77        116.23        33.100        1359.2        312.58        5223.6        4.2341        3843.4        1.5338        36.413    
                        106.81        2575.9        546.32        132.88    
     3    7665.0        81.638        3164.0        4103.5        68.128        1642.4        362.26        823.65        116.45        33.244        1387.2        326.42        5238.2        4.4245        3852.5        1.6451        37.807    
                        108.70        2601.0        547.84        133.36    
     1    7738.1        84.416        3192.2        4113.8        76.382        1683.4        360.79        872.54        116.83        33.531        1443.5        355.42        5266.5        4.8252        3871.4        1.8906        40.753    
                        112.47        2649.4        550.97        134.29    
     2    7811.2        87.165        3218.5        4125.3        85.311        1723.4        358.93        922.32        117.16        33.815        1499.6        385.86        5292.9        5.2475        3891.1        2.1631        43.823    
                        116.21        2695.9        554.17        135.23    
     3    7847.5        88.510        3230.9        4131.5        89.991        1742.9        357.91        947.30        117.30        33.954        1527.3        401.47        5305.0        5.4646        3901.0        2.3077        45.373    
                        118.05        2718.6        555.79        135.70    
     1    7920.6        91.210        3254.7        4144.9        99.970        1781.2        355.46        998.21        117.52        34.235        1582.7        434.01        5326.9        5.9189        3921.5        2.6238        48.631    
                        121.73        2762.0        559.08        136.63    
     2    7993.7        93.872        3277.0        4159.3        110.67        1818.3        352.62        1049.8        117.67        34.514        1637.7        467.91        5344.6        6.3944        3942.4        2.9713        52.012    
                        125.35        2803.6        562.42        137.56    
     3    8030.0        95.171        3287.6        4166.9        116.25        1836.3        351.10        1075.6        117.72        34.651        1664.8        485.22        5351.7        6.6379        3952.9        3.1544        53.715    
                        127.13        2823.8        564.09        138.03    
     1    8103.1        97.773        3307.9        4182.9        128.06        1871.7        347.67        1127.9        117.75        34.926        1718.8        521.10        5361.7        7.1447        3974.3        3.5518        57.279    
                        130.67        2862.5        567.46        138.97    
     2    8176.2        100.33        3327.1        4199.7        140.63        1905.8        343.86        1180.6        117.69        35.200        1772.1        558.23        5365.4        7.6719        3995.8        3.9846        60.957    
                        134.15        2899.3        570.83        139.89    
     3    8212.5        101.58        3336.3        4208.4        147.15        1922.4        341.87        1206.8        117.64        35.334        1798.2        577.11        5364.8        7.9408        4006.5        4.2115        62.806    
                        135.86        2917.2        572.50        140.36    
     1    8285.6        104.07        3354.0        4226.5        160.86        1954.7        337.52        1259.9        117.46        35.604        1850.3        616.03        5357.9        8.4978        4028.0        4.7001        66.653    
                        139.24        2951.3        575.85        141.29    
     2    8358.7        106.51        3370.9        4245.3        175.35        1985.9        332.84        1313.1        117.19        35.872        1901.3        656.08        5343.1        9.0740        4049.2        5.2278        70.607    
                        142.55        2983.8        579.15        142.21    
     3    8395.0        107.69        3379.0        4254.9        182.82        2001.0        330.42        1339.5        117.03        36.003        1926.3        676.35        5332.8        9.3667        4059.6        5.5031        72.589    
                        144.17        2999.5        580.77        142.68    
     1    8468.1        110.06        3394.9        4274.6        198.46        2030.4        325.26        1392.7        116.63        36.266        1975.9        717.96        5304.9        9.9704        4080.1        6.0918        76.696    
                        147.38        3029.6        583.97        143.59    
     2    8541.2        112.38        3410.3        4294.8        214.87        2058.7        319.82        1445.7        116.13        36.525        2024.3        760.52        5270.1        10.592        4099.8        6.7227        80.902    
                        150.54        3058.1        587.08        144.49    
     3    8577.5        113.51        3417.8        4304.9        223.30        2072.3        317.05        1472.0        115.85        36.651        2048.0        781.98        5246.9        10.906        4109.2        7.0504        83.016    
                        152.07        3072.0        588.59        144.95    
     1    8650.6        115.75        3432.7        4325.5        240.84        2099.0        311.22        1524.6        115.22        36.903        2094.7        825.85        5193.9        11.552        4127.1        7.7465        87.364    
                        155.08        3098.5        591.51        145.84    
     2    8723.7        117.95        3447.3        4346.2        259.13        2124.6        305.17        1577.0        114.49        37.151        2140.2        870.48        5130.2        12.214        4143.5        8.4874        91.798    
                        158.04        3123.8        594.29        146.71    
     3    8760.0        119.01        3454.5        4356.5        268.48        2137.0        302.11        1602.8        114.10        37.271        2162.4        892.90        5097.5        12.548        4151.0        8.8705        93.961    
                        159.47        3136.1        595.61        147.14    
     1    8833.1        121.14        3468.8        4377.1        287.86        2161.1        295.76        1654.4        113.24        37.508        2206.1        938.54        5024.7        13.231        4164.5        9.6796        98.432    
                        162.37        3159.6        598.12        147.99    
     2    8906.2        123.21        3483.1        4397.4        307.95        2184.3        289.26        1705.5        112.29        37.739        2248.6        984.74        4945.0        13.928        4175.7        10.535        102.96    
                        165.15        3182.2        600.41        148.81    
     3    8942.5        124.22        3490.2        4407.3        318.17        2195.5        286.00        1730.6        111.79        37.851        2269.2        1007.9        4902.6        14.279        4180.3        10.976        105.22    
                        166.39        3193.2        601.47        149.21    
     1    9015.6        126.22        3504.5        4426.6        339.27        2217.3        279.29        1780.7        110.71        38.069        2309.7        1054.8        4811.4        14.994        4187.4        11.901        109.84    
                        169.11        3214.4        603.40        149.99    
     2    9088.7        128.18        3518.9        4445.0        361.02        2238.2        272.49        1830.1        109.54        38.279        2349.0        1102.0        4713.6        15.720        4191.2        12.874        114.52    
                        171.67        3234.8        605.06        150.74    
     3    9125.0        129.13        3526.1        4453.7        372.05        2248.6        269.10        1854.3        108.94        38.379        2368.1        1125.6        4662.6        16.084        4192.2        13.373        116.85    
                        172.84        3244.9        605.79        151.10    
     1    9198.1        131.03        3540.6        4470.3        394.72        2268.5        262.18        1902.5        107.66        38.573        2405.6        1173.3        4555.9        16.824        4190.6        14.416        121.60    
                        175.17        3264.3        607.00        151.80    
     2    9271.2        132.88        3555.3        4485.2        417.97        2287.8        255.22        1949.8        106.30        38.756        2441.8        1221.0        4444.0        17.573        4185.5        15.506        126.39    
                        177.45        3283.2        607.88        152.44    
     3    9307.5        133.77        3562.7        4491.9        429.71        2297.4        251.77        1972.9        105.61        38.842        2459.3        1244.8        4386.7        17.948        4181.7        16.063        128.76    
                        178.56        3292.5        608.20        152.76    
     1    9380.6        135.56        3577.7        4503.9        453.77        2315.8        244.78        2018.8        104.15        39.007        2493.7        1292.7        4268.6        18.708        4170.7        17.222        133.60    
                        180.73        3310.7        608.56        153.34    
     2    9453.7        137.31        3592.8        4513.5        478.32        2333.7        237.79        2063.8        102.62        39.158        2527.0        1340.5        4147.1        19.474        4156.9        18.427        138.45    
                        182.88        3328.5        608.54        153.86    
     3    9490.0        138.16        3600.4        4517.3        490.68        2342.7        234.33        2085.7        101.85        39.227        2543.1        1364.3        4085.7        19.856        4148.1        19.041        140.85    
                        183.92        3337.3        608.40        154.11    
     1    9563.1        139.86        3615.8        4522.9        515.90        2359.9        227.38        2129.2        100.24        39.356        2574.7        1411.8        3960.6        20.630        4126.7        20.313        145.74    
                        186.02        3354.7        607.79        154.55    
     2    9636.2        141.52        3631.3        4525.4        541.52        2376.8        220.47        2171.6        98.573        39.469        2605.3        1459.2        3833.8        21.407        4099.6        21.629        150.63    
                        188.07        3371.7        606.77        154.93    
     3    9672.5        142.32        3639.0        4525.5        554.38        2385.2        217.06        2192.2        97.730        39.519        2620.1        1482.7        3770.4        21.794        4084.4        22.297        153.10    
                        189.06        3380.3        606.13        155.10    
     1    9745.6        143.93        3654.6        4523.0        580.54        2401.5        210.24        2233.1        95.997        39.607        2649.1        1529.5        3642.4        22.575        4050.6        23.674        158.05    
                        191.06        3397.1        604.48        155.38    
     2    9818.7        145.51        3670.2        4516.8        607.01        2417.6        203.50        2272.9        94.224        39.678        2677.2        1576.0        3514.3        23.357        4012.3        25.090        162.96    
                        193.02        3413.8        602.39        155.58    
     3    9855.0        146.27        3678.0        4512.3        620.25        2425.6        200.18        2292.3        93.330        39.706        2690.8        1599.0        3450.7        23.746        3991.7        25.810        165.38    
                        193.97        3422.2        601.22        155.67    
     1    9928.1        147.81        3693.5        4500.3        647.10        2441.2        193.57        2330.5        91.504        39.749        2717.6        1644.8        3323.3        24.530        3946.8        27.284        170.26    
                        195.88        3438.7        598.48        155.76    
     2    10001.        149.31        3708.8        4484.0        674.16        2456.6        187.07        2367.7        89.649        39.772        2743.5        1690.0        3197.0        25.313        3897.7        28.796        175.11    
                        197.76        3455.1        595.31        155.78    
     3    10038.        150.04        3716.4        4474.5        687.67        2464.3        183.88        2385.8        88.719        39.777        2756.1        1712.3        3134.8        25.701        3871.8        29.563        177.49    
                        198.67        3463.4        593.59        155.77    
     1    10111.        151.50        3731.3        4451.8        714.97        2479.3        177.54        2421.5        86.829        39.770        2780.8        1756.6        3010.9        26.482        3816.7        31.126        182.30    
                        200.50        3479.7        589.77        155.67    
     2    10184.        152.93        3745.8        4424.2        742.38        2494.2        171.32        2456.2        84.922        39.744        2804.9        1800.3        2889.0        27.261        3757.8        32.723        187.09    
                        202.30        3496.0        585.52        155.48    
     3    10220.        153.62        3752.8        4408.5        756.02        2501.6        168.28        2473.0        83.968        39.722        2816.6        1821.9        2829.2        27.647        3727.3        33.531        189.44    
                        203.18        3504.1        583.28        155.36    
     1    10293.        155.00        3766.5        4375.6        783.53        2516.1        162.26        2506.2        82.042        39.664        2839.6        1864.5        2710.9        28.421        3663.3        35.173        194.18    
                        204.94        3520.2        578.40        155.05    
     2    10366.        156.36        3779.5        4338.6        811.06        2530.4        156.38        2538.5        80.108        39.585        2862.1        1906.3        2595.1        29.192        3596.2        36.843        198.88    
                        206.66        3536.1        573.11        154.64    
     3    10402.        157.01        3785.6        4318.4        824.73        2537.5        153.50        2554.2        79.145        39.537        2873.1        1927.0        2538.7        29.573        3561.8        37.684        201.20    
                        207.51        3544.1        570.36        154.42    
     1    10476.        158.32        3797.3        4274.6        852.22        2551.5        147.82        2585.1        77.207        39.425        2894.7        1967.7        2427.2        30.338        3490.5        39.394        205.86    
                        209.18        3559.8        564.49        153.88    
     2    10549.        159.60        3808.0        4226.9        879.65        2565.3        142.29        2615.1        75.271        39.292        2915.8        2007.6        2318.9        31.097        3416.8        41.129        210.48    
                        210.83        3575.1        558.25        153.26    
     3    10585.        160.22        3812.8        4201.8        893.24        2572.1        139.59        2629.7        74.310        39.217        2926.1        2027.3        2266.4        31.472        3379.4        41.995        212.76    
                        211.64        3582.8        555.04        152.93    
     1    10658.        161.46        3821.6        4148.3        920.51        2585.6        134.28        2658.5        72.383        39.051        2946.6        2066.0        2162.9        32.223        3302.6        43.766        217.31    
                        213.24        3597.7        548.26        152.17    
     2    10731.        162.66        3829.1        4091.2        947.64        2598.8        129.11        2686.6        70.466        38.864        2966.5        2103.8        2062.7        32.968        3224.2        45.559        221.81    
                        214.81        3612.2        541.16        151.32    
     3    10768.        163.24        3832.2        4061.6        961.05        2605.2        126.60        2700.2        69.516        38.762        2976.3        2122.5        2014.4        33.336        3184.7        46.454        224.02    
                        215.58        3619.3        537.54        150.88    
     1    10841.        164.39        3837.3        3999.4        987.92        2618.0        121.65        2727.1        67.619        38.543        2995.7        2159.1        1919.4        34.071        3104.2        48.282        228.44    
                        217.10        3633.0        529.97        149.90    
     2    10914.        165.51        3840.7        3934.1        1014.6        2630.5        116.86        2753.3        65.739        38.303        3014.7        2194.9        1827.7        34.800        3022.7        50.133        232.81    
                        218.57        3646.0        522.12        148.84    
     3    10950.        166.05        3841.7        3900.6        1027.7        2636.4        114.52        2766.0        64.810        38.175        3024.0        2212.5        1783.7        35.159        2982.0        51.061        234.95    
                        219.30        3652.4        518.15        148.29    
     1    11023.        167.10        3842.3        3831.1        1054.1        2648.3        109.95        2791.2        62.960        37.904        3042.4        2247.0        1697.2        35.877        2899.5        52.953        239.24    
                        220.72        3664.3        509.92        147.11    
     2    11096.        168.12        3840.9        3759.0        1080.1        2659.7        105.52        2815.8        61.133        37.614        3060.5        2280.8        1614.2        36.587        2816.7        54.867        243.48    
                        222.10        3675.3        501.45        145.84    
     3    11132.        168.61        3839.4        3722.4        1092.9        2665.2        103.37        2827.8        60.231        37.461        3069.3        2297.3        1574.3        36.937        2775.6        55.820        245.55    
                        222.78        3680.5        497.19        145.20    
     1    11206.        169.57        3834.8        3647.0        1118.6        2675.8        99.159        2851.5        58.441        37.142        3086.8        2329.9        1496.3        37.636        2692.7        57.747        249.71    
                        224.09        3690.0        488.42        143.81    
     2    11279.        170.48        3827.9        3569.8        1143.9        2685.9        95.089        2874.6        56.678        36.804        3103.9        2361.6        1421.6        38.326        2610.0        59.672        253.82    
                        225.35        3698.4        479.47        142.36    
     3    11315.        170.92        3823.6        3530.8        1156.4        2690.7        93.114        2885.9        55.809        36.629        3112.3        2377.2        1385.7        38.666        2569.2        60.612        255.83    
                        225.97        3702.2        474.98        141.62    
     1    11388.        171.76        3813.3        3451.2        1181.2        2700.0        89.252        2908.2        54.090        36.264        3128.8        2407.8        1315.7        39.344        2487.3        62.532        259.85    
                        227.15        3708.6        465.80        140.06    
     2    11461.        172.56        3800.4        3370.3        1205.7        2708.6        85.527        2930.0        52.400        35.883        3144.9        2437.6        1248.8        40.013        2406.1        64.437        263.82    
                        228.28        3713.6        456.50        138.43    
     3    11498.        172.93        3793.5        3329.8        1217.8        2712.7        83.721        2940.6        51.570        35.686        3152.7        2452.3        1216.7        40.342        2366.1        65.342        265.76    
                        228.83        3715.7        451.86        137.61    
     1    11571.        173.64        3776.7        3247.4        1241.8        2720.5        80.195        2961.7        49.928        35.281        3168.0        2481.1        1154.3        40.998        2286.3        67.217        269.63    
                        229.87        3718.3        442.40        135.89    
     2    11644.        174.30        3757.0        3164.4        1265.5        2727.5        76.798        2982.3        48.320        34.861        3182.8        2509.2        1094.8        41.645        2207.6        69.070        273.45    
                        230.85        3719.4        432.87        134.11    
     3    11680.        174.61        3745.6        3123.1        1277.1        2730.6        75.152        2992.3        47.530        34.646        3190.0        2523.0        1066.2        41.963        2168.9        69.976        275.31    
                        231.32        3719.3        428.13        133.21    
     1    11753.        175.20        3722.1        3039.5        1300.2        2736.2        71.943        3012.2        45.973        34.206        3204.0        2550.0        1010.8        42.596        2092.1        71.807        279.04    
                        232.19        3717.7        418.52        131.35    
     2    11826.        175.72        3696.6        2955.7        1323.0        2740.6        68.856        3031.5        44.450        33.752        3217.3        2576.4        958.05        43.219        2016.7        73.633        282.71    
                        233.00        3714.1        408.88        129.45    
     3    11862.        175.94        3683.4        2914.2        1334.2        2741.9        67.360        3041.0        43.703        33.521        3223.7        2589.4        932.76        43.526        1979.8        74.537        284.50    
                        233.39        3711.8        404.10        128.49    
     1    11936.        176.34        3654.1        2830.6        1356.4        2744.6        64.449        3059.6        42.233        33.050        3235.9        2614.9        883.74        44.134        1906.7        76.345        288.08    
                        234.08        3705.4        394.45        126.52    
     2    12009.        176.71        3622.4        2747.4        1378.2        2745.6        61.651        3077.7        40.798        32.568        3247.5        2639.8        837.13        44.733        1835.2        78.141        291.60    
                        234.70        3697.0        384.81        124.50    
     3    12045.        176.83        3605.8        2706.3        1389.0        2745.1        60.297        3086.5        40.095        32.324        3252.9        2652.0        814.80        45.027        1800.3        79.033        293.31    
                        234.98        3692.3        380.04        123.50    
     1    12118.        177.15        3570.7        2623.9        1410.3        2744.1        57.663        3103.9        38.714        31.827        3263.2        2676.0        771.59        45.610        1731.3        80.811        296.74    
                        235.46        3680.7        370.45        121.43    
     2    12191.        177.35        3533.2        2542.3        1431.2        2741.8        55.135        3120.6        37.369        31.323        3272.5        2699.5        730.55        46.183        1664.1        82.575        300.10    
                        235.85        3667.3        360.90        119.34    
     3    12228.        177.36        3513.8        2502.1        1441.5        2740.0        53.911        3128.7        36.711        31.068        3276.8        2711.0        710.90        46.464        1631.3        83.450        301.74    
                        236.01        3660.0        356.19        118.29    
     1    12301.        177.41        3473.0        2421.9        1461.9        2735.6        51.534        3144.6        35.419        30.552        3284.7        2733.6        672.92        47.020        1566.8        85.193        305.00    
                        236.26        3644.4        346.75        116.16    
     2    12374.        177.32        3430.2        2342.8        1481.9        2729.8        49.254        3159.9        34.163        30.030        3291.5        2755.7        636.87        47.565        1504.1        86.919        308.19    
                        236.42        3626.6        337.38        114.01    
     3    12410.        177.22        3408.2        2303.9        1491.7        2726.3        48.152        3167.2        33.548        29.767        3294.5        2766.5        619.63        47.833        1473.5        87.775        309.75    
                        236.46        3616.7        332.77        112.94    
     1    12483.        176.95        3362.4        2226.7        1511.3        2718.3        46.011        3181.4        32.345        29.237        3299.6        2787.7        586.32        48.361        1413.5        89.476        312.84    
                        236.46        3594.8        323.55        110.76    
     2    12556.        176.65        3314.9        2150.7        1530.4        2708.8        43.960        3194.9        31.176        28.702        3303.5        2808.4        554.74        48.875        1355.4        91.160        315.86    
                        236.36        3570.3        314.43        108.57    
     3    12592.        176.48        3290.6        2113.5        1539.8        2703.6        42.968        3201.4        30.605        28.434        3305.0        2818.6        539.63        49.127        1327.1        91.995        317.33    
                        236.27        3557.3        309.96        107.48    
     1    12666.        176.10        3240.6        2039.7        1558.4        2692.0        41.044        3213.7        29.488        27.895        3307.1        2838.5        510.48        49.625        1271.7        93.652        320.24    
                        236.01        3529.8        301.02        105.28    
     2    12739.        175.64        3188.9        1967.5        1576.7        2678.9        39.202        3225.2        28.405        27.353        3307.7        2857.8        482.86        50.107        1218.1        95.290        323.08    
                        235.64        3500.1        292.21        103.07    
     3    12775.        175.40        3162.8        1932.1        1585.7        2671.9        38.311        3230.6        27.876        27.082        3307.6        2867.3        469.65        50.342        1192.1        96.101        324.46    
                        235.42        3484.6        287.89        101.98    
     1    12848.        174.84        3109.1        1862.2        1603.4        2656.7        36.585        3240.8        26.842        26.538        3306.2        2885.8        444.18        50.803        1141.1        97.710        327.17    
                        234.89        3451.9        279.29        99.773    
     2    12921.        174.21        3054.3        1793.9        1620.8        2640.1        34.933        3250.1        25.841        25.994        3303.3        2903.7        420.05        51.253        1092.0        99.299        329.81    
                        234.25        3417.3        270.83        97.570    
     3    12958.        173.90        3026.6        1760.6        1629.4        2631.3        34.135        3254.3        25.352        25.722        3301.3        2912.5        408.52        51.475        1068.2        100.09        331.08    
                        233.89        3399.4        266.69        96.481    
     1    13031.        173.16        2970.1        1694.9        1646.2        2612.5        32.589        3262.0        24.398        25.179        3296.2        2929.5        386.29        51.916        1021.7        101.64        333.59    
                        233.09        3362.0        258.46        94.287    
     2    13104.        172.37        2912.7        1630.9        1662.8        2592.4        31.110        3268.7        23.476        24.636        3289.6        2945.9        365.25        52.340        976.84        103.18        336.02    
                        232.17        3322.9        250.38        92.104    
     3    13140.        171.97        2884.0        1599.7        1670.9        2581.9        30.396        3271.6        23.026        24.366        3285.8        2953.8        355.19        52.540        955.17        103.94        337.18    
                        231.68        3302.7        246.44        91.026    
     1    13213.        171.09        2825.5        1538.2        1686.9        2559.8        29.013        3276.6        22.148        23.826        3276.7        2969.2        335.81        52.930        912.83        105.45        339.47    
                        230.60        3261.1        238.61        88.862    
     2    13286.        170.14        2766.3        1478.6        1702.6        2536.4        27.691        3280.4        21.300        23.289        3266.5        2983.9        317.48        53.303        872.10        106.93        341.66    
                        229.42        3217.9        230.94        86.713    
     3    13322.        169.64        2736.8        1449.6        1710.2        2524.4        27.052        3281.8        20.887        23.022        3260.3        2991.0        308.72        53.483        852.40        107.66        342.71    
                        228.79        3195.8        227.20        85.654    
     1    13396.        168.59        2677.0        1392.5        1725.4        2499.1        25.816        3283.8        20.081        22.490        3246.8        3004.6        291.85        53.832        814.00        109.11        344.75    
                        227.45        3150.5        219.79        83.533    
     2    13469.        167.46        2616.8        1337.2        1740.1        2472.7        24.635        3284.5        19.304        21.962        3230.9        3017.5        275.90        54.165        777.14        110.53        346.70    
                        226.00        3103.9        212.55        81.433    
     3    13505.        166.88        2587.0        1310.3        1747.3        2459.1        24.065        3284.3        18.925        21.700        3222.9        3023.7        268.27        54.325        759.35        111.24        347.62    
                        225.25        3080.1        209.02        80.399    
     1    13578.        165.65        2526.6        1257.6        1761.5        2431.0        22.962        3283.1        18.188        21.179        3205.5        3035.3        253.60        54.633        724.69        112.63        349.41    
                        223.65        3031.7        202.03        78.333    
     2    13651.        164.35        2466.1        1206.6        1775.4        2401.8        21.909        3280.4        17.476        20.663        3186.7        3046.1        239.73        54.923        691.46        113.99        351.08    
                        221.95        2982.2        195.22        76.292    
     3    13688.        163.68        2436.3        1181.9        1782.1        2387.0        21.400        3278.6        17.130        20.406        3176.9        3051.3        233.10        55.061        675.44        114.67        351.87    
                        221.08        2957.1        191.91        75.288    
     1    13761.        162.29        2375.9        1133.4        1795.3        2356.3        20.417        3273.8        16.456        19.899        3155.7        3060.7        220.35        55.324        644.25        115.99        353.38    
                        219.24        2906.1        185.36        73.286    
     2    13834.        160.83        2315.8        1086.5        1808.1        2324.8        19.478        3267.7        15.806        19.397        3133.0        3069.3        208.30        55.569        614.39        117.29        354.77    
                        217.31        2854.4        178.98        71.313    
     3    13870.        160.09        2286.3        1063.9        1814.3        2308.7        19.025        3264.0        15.490        19.148        3121.2        3073.2        202.53        55.685        600.00        117.93        355.42    
                        216.32        2828.2        175.87        70.344    
     1    13943.        158.54        2226.7        1019.4        1826.5        2275.9        18.149        3255.8        14.875        18.656        3096.3        3080.3        191.46        55.901        572.03        119.19        356.63    
                        214.26        2775.4        169.75        68.415    
     2    14016.        156.94        2167.5        976.63        1838.2        2242.4        17.313        3245.7        14.283        18.170        3069.8        3086.4        180.99        56.099        545.26        120.43        357.72    
                        212.11        2722.0        163.80        66.517    
     3    14052.        156.13        2138.5        955.90        1843.9        2225.4        16.909        3240.0        13.995        17.930        3056.1        3089.1        175.99        56.191        532.37        121.03        358.21    
                        211.02        2695.1        160.90        65.586    
     1    14126.        154.44        2080.1        915.39        1855.0        2190.8        16.129        3227.4        13.435        17.455        3027.6        3093.6        166.37        56.359        507.34        122.22        359.11    
                        208.75        2641.0        155.20        63.735    
     2    14199.        152.71        2022.4        876.37        1865.5        2155.6        15.385        3213.4        12.896        16.987        2997.6        3097.0        157.28        56.508        483.40        123.38        359.88    
                        206.42        2586.6        149.66        61.918    
     3    14235.        151.83        1994.0        857.50        1870.6        2137.9        15.026        3206.1        12.634        16.756        2982.2        3098.3        152.93        56.575        471.88        123.95        360.21    
                        205.23        2559.3        146.97        61.027    
     1    14308.        150.03        1937.3        820.67        1880.4        2101.9        14.332        3190.3        12.126        16.300        2950.3        3100.0        144.59        56.694        449.52        125.07        360.79    
                        202.79        2504.5        141.68        59.260    
     2    14381.        148.19        1881.4        785.24        1889.6        2065.4        13.670        3172.9        11.636        15.852        2917.1        3100.5        136.70        56.792        428.16        126.15        361.23    
                        200.28        2449.5        136.55        57.527    
     3    14418.        147.25        1854.0        768.12        1894.2        2047.2        13.351        3163.8        11.398        15.630        2900.2        3100.4        132.93        56.834        417.88        126.68        361.40    
                        199.01        2422.0        134.05        56.678    
     1    14491.        145.35        1799.2        734.72        1902.7        2010.2        12.734        3144.3        10.936        15.194        2865.3        3099.1        125.68        56.902        397.94        127.71        361.63    
                        196.42        2367.0        129.15        54.997    
     2    14564.        143.41        1745.4        702.64        1910.6        1972.9        12.146        3123.3        10.492        14.766        2829.3        3096.6        118.84        56.948        378.92        128.71        361.74    
                        193.76        2312.1        124.41        53.351    
     3    14600.        142.43        1719.1        687.15        1914.6        1954.2        11.861        3112.4        10.276        14.554        2811.0        3094.9        115.57        56.965        369.76        129.20        361.74    
                        192.43        2284.6        122.11        52.546    
