  STEP   TOTAL TIME             LOCATION OF OBSERVATION POINTS (K,I,J)
                      1   1  51
     1   0.80000       8.01146E-15
     2    1.6000       8.01215E-15
     3    2.4000       8.01284E-15
     4    3.2000       8.01353E-15
     5    4.0000       8.01423E-15
     6    4.8000       8.01492E-15
     7    5.6000       8.01561E-15
     8    6.4000       8.01631E-15
     9    7.2000       8.01700E-15
    10    8.0000       8.01770E-15
    11    8.8000       8.01839E-15
    12    9.6000       8.01908E-15
    13    10.400       8.01978E-15
    14    11.200       8.02047E-15
    15    12.000       8.02116E-15
    16    12.800       8.02186E-15
    17    13.600       8.02255E-15
    18    14.400       8.02325E-15
    19    15.200       8.02394E-15
    20    16.000       8.02464E-15
    21    16.800       8.02533E-15
    22    17.600       8.02603E-15
    23    18.400       8.02672E-15
    24    19.200       8.02741E-15
    25    20.000       8.02811E-15
    26    20.800       8.02880E-15
    27    21.600       8.02950E-15
    28    22.400       8.03019E-15
    29    23.200       8.03089E-15
    30    24.000       8.03159E-15
    31    24.800       8.03228E-15
    32    25.600       8.03298E-15
    33    26.400       8.03368E-15
    34    27.200       8.03437E-15
    35    28.000       8.03507E-15
    36    28.800       8.03577E-15
    37    29.600       8.03646E-15
    38    30.400       8.03716E-15
    39    31.200       8.03786E-15
    40    32.000       8.03856E-15
    41    32.800       8.03925E-15
    42    33.600       8.03995E-15
    43    34.400       8.04065E-15
    44    35.200       8.04135E-15
    45    36.000       8.04204E-15
    46    36.800       8.04274E-15
    47    37.600       8.04344E-15
    48    38.400       8.04414E-15
    49    39.200       8.04483E-15
    50    40.000       8.04553E-15
    51    40.800       8.04623E-15
    52    41.600       8.04693E-15
    53    42.400       8.04762E-15
    54    43.200       8.04832E-15
    55    44.000       8.04902E-15
    56    44.800       8.04972E-15
    57    45.600       8.05042E-15
    58    46.400       8.05112E-15
    59    47.200       8.05182E-15
    60    48.000       8.05252E-15
    61    48.800       8.05321E-15
    62    49.600       8.05391E-15
    63    50.400       8.05461E-15
    64    51.200       8.05531E-15
    65    52.000       8.05601E-15
    66    52.800       8.05671E-15
    67    53.600       8.05741E-15
    68    54.400       8.05811E-15
    69    55.200       8.05882E-15
    70    56.000       8.05952E-15
    71    56.800       8.06022E-15
    72    57.600       8.06092E-15
    73    58.400       8.06162E-15
    74    59.200       8.06232E-15
    75    60.000       8.06302E-15
    76    60.800       8.06372E-15
    77    61.600       8.06442E-15
    78    62.400       8.06512E-15
    79    63.200       8.06582E-15
    80    64.000       8.06653E-15
    81    64.800       8.06723E-15
    82    65.600       8.06793E-15
    83    66.400       8.06863E-15
    84    67.200       8.06933E-15
    85    68.000       8.07004E-15
    86    68.800       8.07074E-15
    87    69.600       8.07144E-15
    88    70.400       8.07215E-15
    89    71.200       8.07285E-15
    90    72.000       8.07355E-15
    91    72.800       8.07425E-15
    92    73.600       8.07495E-15
    93    74.400       8.07566E-15
    94    75.200       8.07636E-15
    95    76.000       8.07707E-15
    96    76.800       8.07777E-15
    97    77.600       8.07847E-15
    98    78.400       8.07918E-15
    99    79.200       8.07988E-15
   100    80.000       8.08058E-15
   101    80.800       8.08129E-15
   102    81.600       8.08199E-15
   103    82.400       8.08270E-15
   104    83.200       8.08340E-15
   105    84.000       8.08411E-15
   106    84.800       8.08481E-15
   107    85.600       8.08551E-15
   108    86.400       8.08622E-15
   109    87.200       8.08693E-15
   110    88.000       8.08763E-15
   111    88.800       8.08834E-15
   112    89.600       8.08904E-15
   113    90.400       8.08975E-15
   114    91.200       8.09045E-15
   115    92.000       8.09116E-15
   116    92.800       8.09186E-15
   117    93.600       8.09257E-15
   118    94.400       8.09328E-15
   119    95.200       8.09398E-15
   120    96.000       8.09469E-15
   121    96.800       8.09539E-15
   122    97.600       8.09610E-15
   123    98.400       8.09681E-15
   124    99.200       8.09752E-15
   125    100.00       8.09822E-15
   126    100.80       8.09893E-15
   127    101.60       8.09964E-15
   128    102.40       8.10034E-15
   129    103.20       8.10105E-15
   130    104.00       8.10176E-15
   131    104.80       8.10246E-15
   132    105.60       8.10317E-15
   133    106.40       8.10388E-15
   134    107.20       8.10459E-15
   135    108.00       8.10529E-15
   136    108.80       8.10600E-15
   137    109.60       8.10671E-15
   138    110.40       8.10742E-15
   139    111.20       8.10813E-15
   140    112.00       8.10884E-15
   141    112.80       8.10955E-15
   142    113.60       8.11025E-15
   143    114.40       8.11096E-15
   144    115.20       8.11167E-15
   145    116.00       8.11238E-15
   146    116.80       8.11309E-15
   147    117.60       8.11380E-15
   148    118.40       8.11451E-15
   149    119.20       8.11522E-15
   150    120.00       8.11593E-15
   151    120.80       8.11664E-15
   152    121.60       8.11735E-15
   153    122.40       8.11806E-15
   154    123.20       8.11877E-15
   155    124.00       8.11949E-15
   156    124.80       8.12020E-15
   157    125.60       8.12091E-15
   158    126.40       8.12162E-15
   159    127.20       8.12233E-15
   160    128.00       8.12304E-15
   161    128.80       8.12375E-15
   162    129.60       8.12446E-15
   163    130.40       8.12517E-15
   164    131.20       8.12588E-15
   165    132.00       8.12659E-15
   166    132.80       8.12730E-15
   167    133.60       8.12802E-15
   168    134.40       8.12873E-15
   169    135.20       8.12944E-15
   170    136.00       8.13015E-15
   171    136.80       8.13086E-15
   172    137.60       8.13157E-15
   173    138.40       8.13228E-15
   174    139.20       8.13298E-15
   175    140.00       8.13365E-15
   176    140.80       8.13424E-15
   177    141.60       8.13486E-15
   178    142.40       8.13562E-15
   179    143.20       8.13685E-15
   180    144.00       8.13984E-15
   181    144.80       8.14936E-15
   182    145.60       8.18397E-15
   183    146.40       8.31813E-15
   184    147.20       8.84235E-15
   185    148.00       1.08385E-14
   186    148.80       1.82854E-14
   187    149.60       4.66855E-14
   188    150.40       1.60272E-13
   189    151.20       6.20518E-13
   190    152.00       2.42603E-12
   191    152.80       9.07945E-12
   192    153.60       3.17857E-11
   193    154.40       1.03210E-10
   194    155.20       3.10318E-10
   195    156.00       8.65347E-10
   196    156.80       2.25501E-09
   197    157.60       5.50960E-09
   198    158.40       1.26470E-08
   199    159.20       2.73382E-08
   200    160.00       5.57941E-08
     1    160.80       1.07924E-07
     2    161.60       1.99793E-07
     3    162.40       3.54028E-07
     4    163.20       6.00649E-07
     5    164.00       9.77695E-07
     6    164.80       1.53105E-06
     7    165.60       2.31366E-06
     8    166.40       3.38204E-06
     9    167.20       4.79623E-06
    10    168.00       6.61930E-06
    11    168.80       8.91539E-06
    12    169.60       1.17488E-05
    13    170.40       1.51835E-05
    14    171.20       1.92825E-05
    15    172.00       2.41073E-05
    16    172.80       2.97182E-05
    17    173.60       3.61739E-05
    18    174.40       4.35313E-05
    19    175.20       5.18455E-05
    20    176.00       6.11696E-05
    21    176.80       7.15547E-05
    22    177.60       8.30500E-05
    23    178.40       9.57023E-05
    24    179.20       1.09556E-04
    25    180.00       1.24655E-04
    26    180.80       1.41039E-04
    27    181.60       1.58746E-04
    28    182.40       1.77813E-04
    29    183.20       1.98275E-04
    30    184.00       2.20162E-04
    31    184.80       2.43507E-04
    32    185.60       2.68336E-04
    33    186.40       2.94676E-04
    34    187.20       3.22553E-04
    35    188.00       3.51987E-04
    36    188.80       3.83000E-04
    37    189.60       4.15610E-04
    38    190.40       4.49836E-04
    39    191.20       4.85692E-04
    40    192.00       5.23193E-04
    41    192.80       5.62351E-04
    42    193.60       6.03176E-04
    43    194.40       6.45678E-04
    44    195.20       6.89864E-04
    45    196.00       7.35742E-04
    46    196.80       7.83315E-04
    47    197.60       8.32589E-04
    48    198.40       8.83564E-04
    49    199.20       9.36243E-04
    50    200.00       9.90626E-04
    51    200.80       1.04671E-03
    52    201.60       1.10449E-03
    53    202.40       1.16397E-03
    54    203.20       1.22515E-03
    55    204.00       1.28800E-03
    56    204.80       1.35254E-03
    57    205.60       1.41875E-03
    58    206.40       1.48662E-03
    59    207.20       1.55615E-03
    60    208.00       1.62732E-03
    61    208.80       1.70012E-03
    62    209.60       1.77454E-03
    63    210.40       1.85056E-03
    64    211.20       1.92818E-03
    65    212.00       2.00737E-03
    66    212.80       2.08812E-03
    67    213.60       2.17042E-03
    68    214.40       2.25424E-03
    69    215.20       2.33957E-03
    70    216.00       2.42639E-03
    71    216.80       2.51467E-03
    72    217.60       2.60440E-03
    73    218.40       2.69556E-03
    74    219.20       2.78812E-03
    75    220.00       2.88206E-03
    76    220.80       2.97736E-03
    77    221.60       3.07398E-03
    78    222.40       3.17191E-03
    79    223.20       3.27112E-03
    80    224.00       3.37158E-03
    81    224.80       3.47326E-03
    82    225.60       3.57614E-03
    83    226.40       3.68018E-03
    84    227.20       3.78536E-03
    85    228.00       3.89164E-03
    86    228.80       3.99899E-03
    87    229.60       4.10739E-03
    88    230.40       4.21681E-03
    89    231.20       4.32719E-03
    90    232.00       4.43852E-03
    91    232.80       4.55077E-03
    92    233.60       4.66388E-03
    93    234.40       4.77784E-03
    94    235.20       4.89261E-03
    95    236.00       5.00815E-03
    96    236.80       5.12442E-03
    97    237.60       5.24139E-03
    98    238.40       5.35903E-03
    99    239.20       5.47729E-03
   100    240.00       5.59615E-03
   101    240.80       5.71556E-03
   102    241.60       5.83548E-03
   103    242.40       5.95588E-03
   104    243.20       6.07673E-03
   105    244.00       6.19798E-03
   106    244.80       6.31960E-03
   107    245.60       6.44156E-03
   108    246.40       6.56380E-03
   109    247.20       6.68631E-03
   110    248.00       6.80903E-03
   111    248.80       6.93195E-03
   112    249.60       7.05501E-03
   113    250.40       7.17818E-03
   114    251.20       7.30143E-03
   115    252.00       7.42472E-03
   116    252.80       7.54801E-03
   117    253.60       7.67128E-03
   118    254.40       7.79448E-03
   119    255.20       7.91759E-03
   120    256.00       8.04057E-03
   121    256.80       8.16338E-03
   122    257.60       8.28599E-03
   123    258.40       8.40838E-03
   124    259.20       8.53050E-03
   125    260.00       8.65233E-03
   126    260.80       8.77384E-03
   127    261.60       8.89500E-03
   128    262.40       9.01577E-03
   129    263.20       9.13613E-03
   130    264.00       9.25605E-03
   131    264.80       9.37550E-03
   132    265.60       9.49445E-03
   133    266.40       9.61288E-03
   134    267.20       9.73077E-03
   135    268.00       9.84808E-03
   136    268.80       9.96479E-03
   137    269.60       1.00809E-02
   138    270.40       1.01963E-02
   139    271.20       1.03111E-02
   140    272.00       1.04252E-02
   141    272.80       1.05385E-02
   142    273.60       1.06512E-02
   143    274.40       1.07630E-02
   144    275.20       1.08741E-02
   145    276.00       1.09844E-02
   146    276.80       1.10939E-02
   147    277.60       1.12026E-02
   148    278.40       1.13104E-02
   149    279.20       1.14173E-02
   150    280.00       1.15234E-02
   151    280.80       1.16285E-02
   152    281.60       1.17328E-02
   153    282.40       1.18361E-02
   154    283.20       1.19385E-02
   155    284.00       1.20400E-02
   156    284.80       1.21404E-02
   157    285.60       1.22399E-02
   158    286.40       1.23385E-02
   159    287.20       1.24360E-02
   160    288.00       1.25325E-02
   161    288.80       1.26280E-02
   162    289.60       1.27224E-02
   163    290.40       1.28158E-02
   164    291.20       1.29082E-02
   165    292.00       1.29995E-02
   166    292.80       1.30898E-02
   167    293.60       1.31790E-02
   168    294.40       1.32672E-02
   169    295.20       1.33542E-02
   170    296.00       1.34402E-02
   171    296.80       1.35251E-02
   172    297.60       1.36089E-02
   173    298.40       1.36916E-02
   174    299.20       1.37732E-02
   175    300.00       1.38537E-02
   176    300.80       1.39331E-02
   177    301.60       1.40114E-02
   178    302.40       1.40886E-02
   179    303.20       1.41647E-02
   180    304.00       1.42397E-02
   181    304.80       1.43136E-02
   182    305.60       1.43864E-02
   183    306.40       1.44580E-02
   184    307.20       1.45286E-02
   185    308.00       1.45980E-02
   186    308.80       1.46663E-02
   187    309.60       1.47336E-02
   188    310.40       1.47997E-02
   189    311.20       1.48647E-02
   190    312.00       1.49287E-02
   191    312.80       1.49915E-02
   192    313.60       1.50532E-02
   193    314.40       1.51138E-02
   194    315.20       1.51734E-02
   195    316.00       1.52319E-02
   196    316.80       1.52893E-02
   197    317.60       1.53456E-02
   198    318.40       1.54008E-02
   199    319.20       1.54550E-02
   200    320.00       1.55081E-02
   201    320.80       1.55601E-02
   202    321.60       1.56111E-02
   203    322.40       1.56611E-02
   204    323.20       1.57100E-02
   205    324.00       1.57578E-02
   206    324.80       1.58047E-02
   207    325.60       1.58505E-02
   208    326.40       1.58953E-02
   209    327.20       1.59390E-02
   210    328.00       1.59818E-02
   211    328.80       1.60236E-02
   212    329.60       1.60643E-02
   213    330.40       1.61041E-02
   214    331.20       1.61429E-02
   215    332.00       1.61807E-02
   216    332.80       1.62176E-02
   217    333.60       1.62535E-02
   218    334.40       1.62884E-02
   219    335.20       1.63224E-02
   220    336.00       1.63554E-02
   221    336.80       1.63875E-02
   222    337.60       1.64187E-02
   223    338.40       1.64490E-02
   224    339.20       1.64783E-02
   225    340.00       1.65068E-02
   226    340.80       1.65344E-02
   227    341.60       1.65610E-02
   228    342.40       1.65868E-02
   229    343.20       1.66117E-02
   230    344.00       1.66358E-02
   231    344.80       1.66590E-02
   232    345.60       1.66813E-02
   233    346.40       1.67028E-02
   234    347.20       1.67235E-02
   235    348.00       1.67433E-02
   236    348.80       1.67623E-02
   237    349.60       1.67806E-02
   238    350.40       1.67980E-02
   239    351.20       1.68146E-02
   240    352.00       1.68304E-02
   241    352.80       1.68455E-02
   242    353.60       1.68597E-02
   243    354.40       1.68733E-02
   244    355.20       1.68860E-02
   245    356.00       1.68980E-02
   246    356.80       1.69093E-02
   247    357.60       1.69199E-02
   248    358.40       1.69297E-02
   249    359.20       1.69388E-02
   250    360.00       1.69472E-02
   251    360.80       1.69549E-02
   252    361.60       1.69619E-02
   253    362.40       1.69682E-02
   254    363.20       1.69739E-02
   255    364.00       1.69789E-02
   256    364.80       1.69832E-02
   257    365.60       1.69868E-02
   258    366.40       1.69899E-02
   259    367.20       1.69922E-02
   260    368.00       1.69940E-02
   261    368.80       1.69951E-02
   262    369.60       1.69956E-02
   263    370.40       1.69956E-02
   264    371.20       1.69949E-02
   265    372.00       1.69936E-02
   266    372.80       1.69917E-02
   267    373.60       1.69893E-02
   268    374.40       1.69862E-02
   269    375.20       1.69827E-02
   270    376.00       1.69785E-02
   271    376.80       1.69738E-02
   272    377.60       1.69686E-02
   273    378.40       1.69628E-02
   274    379.20       1.69565E-02
   275    380.00       1.69497E-02
   276    380.80       1.69424E-02
   277    381.60       1.69345E-02
   278    382.40       1.69262E-02
   279    383.20       1.69174E-02
   280    384.00       1.69080E-02
   281    384.80       1.68982E-02
   282    385.60       1.68880E-02
   283    386.40       1.68772E-02
   284    387.20       1.68660E-02
   285    388.00       1.68544E-02
   286    388.80       1.68423E-02
   287    389.60       1.68297E-02
   288    390.40       1.68167E-02
   289    391.20       1.68033E-02
   290    392.00       1.67895E-02
   291    392.80       1.67752E-02
   292    393.60       1.67606E-02
   293    394.40       1.67456E-02
   294    395.20       1.67301E-02
   295    396.00       1.67143E-02
   296    396.80       1.66980E-02
   297    397.60       1.66814E-02
   298    398.40       1.66644E-02
   299    399.20       1.66470E-02
   300    400.00       1.66293E-02
   301    400.80       1.66112E-02
   302    401.60       1.65928E-02
   303    402.40       1.65741E-02
   304    403.20       1.65549E-02
   305    404.00       1.65355E-02
   306    404.80       1.65157E-02
   307    405.60       1.64955E-02
   308    406.40       1.64751E-02
   309    407.20       1.64543E-02
   310    408.00       1.64333E-02
   311    408.80       1.64120E-02
   312    409.60       1.63904E-02
   313    410.40       1.63684E-02
   314    411.20       1.63462E-02
   315    412.00       1.63236E-02
   316    412.80       1.63008E-02
   317    413.60       1.62777E-02
   318    414.40       1.62543E-02
   319    415.20       1.62306E-02
   320    416.00       1.62066E-02
   321    416.80       1.61825E-02
   322    417.60       1.61582E-02
   323    418.40       1.61337E-02
   324    419.20       1.61089E-02
   325    420.00       1.60838E-02
   326    420.80       1.60585E-02
   327    421.60       1.60330E-02
   328    422.40       1.60073E-02
   329    423.20       1.59814E-02
   330    424.00       1.59551E-02
   331    424.80       1.59286E-02
   332    425.60       1.59019E-02
   333    426.40       1.58750E-02
   334    427.20       1.58480E-02
   335    428.00       1.58208E-02
   336    428.80       1.57934E-02
   337    429.60       1.57658E-02
   338    430.40       1.57380E-02
   339    431.20       1.57101E-02
   340    432.00       1.56819E-02
   341    432.80       1.56536E-02
   342    433.60       1.56251E-02
   343    434.40       1.55964E-02
   344    435.20       1.55675E-02
   345    436.00       1.55386E-02
   346    436.80       1.55094E-02
   347    437.60       1.54802E-02
   348    438.40       1.54507E-02
   349    439.20       1.54212E-02
   350    440.00       1.53915E-02
   351    440.80       1.53616E-02
   352    441.60       1.53316E-02
   353    442.40       1.53015E-02
   354    443.20       1.52712E-02
   355    444.00       1.52408E-02
   356    444.80       1.52103E-02
   357    445.60       1.51797E-02
   358    446.40       1.51490E-02
   359    447.20       1.51181E-02
   360    448.00       1.50872E-02
   361    448.80       1.50561E-02
   362    449.60       1.50249E-02
   363    450.40       1.49937E-02
   364    451.20       1.49623E-02
   365    452.00       1.49308E-02
   366    452.80       1.48993E-02
   367    453.60       1.48676E-02
   368    454.40       1.48359E-02
   369    455.20       1.48041E-02
   370    456.00       1.47722E-02
   371    456.80       1.47402E-02
   372    457.60       1.47081E-02
   373    458.40       1.46760E-02
   374    459.20       1.46437E-02
   375    460.00       1.46115E-02
   376    460.80       1.45791E-02
   377    461.60       1.45467E-02
   378    462.40       1.45142E-02
   379    463.20       1.44817E-02
   380    464.00       1.44491E-02
   381    464.80       1.44164E-02
   382    465.60       1.43837E-02
   383    466.40       1.43509E-02
   384    467.20       1.43181E-02
   385    468.00       1.42853E-02
   386    468.80       1.42524E-02
   387    469.60       1.42194E-02
   388    470.40       1.41864E-02
   389    471.20       1.41534E-02
   390    472.00       1.41203E-02
   391    472.80       1.40872E-02
   392    473.60       1.40541E-02
   393    474.40       1.40209E-02
   394    475.20       1.39877E-02
   395    476.00       1.39545E-02
   396    476.80       1.39212E-02
   397    477.60       1.38879E-02
   398    478.40       1.38546E-02
   399    479.20       1.38213E-02
   400    480.00       1.37879E-02
   401    480.80       1.37546E-02
   402    481.60       1.37212E-02
   403    482.40       1.36878E-02
   404    483.20       1.36544E-02
   405    484.00       1.36210E-02
   406    484.80       1.35875E-02
   407    485.60       1.35541E-02
   408    486.40       1.35207E-02
   409    487.20       1.34872E-02
   410    488.00       1.34537E-02
   411    488.80       1.34203E-02
   412    489.60       1.33868E-02
   413    490.40       1.33534E-02
   414    491.20       1.33199E-02
   415    492.00       1.32865E-02
   416    492.80       1.32530E-02
   417    493.60       1.32196E-02
   418    494.40       1.31861E-02
   419    495.20       1.31527E-02
   420    496.00       1.31193E-02
   421    496.80       1.30859E-02
   422    497.60       1.30525E-02
   423    498.40       1.30191E-02
   424    499.20       1.29858E-02
   425    500.00       1.29524E-02
   426    500.80       1.29191E-02
   427    501.60       1.28858E-02
   428    502.40       1.28525E-02
   429    503.20       1.28192E-02
   430    504.00       1.27860E-02
   431    504.80       1.27527E-02
   432    505.60       1.27195E-02
   433    506.40       1.26863E-02
   434    507.20       1.26532E-02
   435    508.00       1.26200E-02
   436    508.80       1.25869E-02
   437    509.60       1.25539E-02
   438    510.40       1.25208E-02
   439    511.20       1.24878E-02
   440    512.00       1.24548E-02
   441    512.80       1.24219E-02
   442    513.60       1.23890E-02
   443    514.40       1.23561E-02
   444    515.20       1.23232E-02
   445    516.00       1.22904E-02
   446    516.80       1.22576E-02
   447    517.60       1.22249E-02
   448    518.40       1.21922E-02
   449    519.20       1.21595E-02
   450    520.00       1.21269E-02
   451    520.80       1.20943E-02
   452    521.60       1.20618E-02
   453    522.40       1.20293E-02
   454    523.20       1.19968E-02
   455    524.00       1.19644E-02
   456    524.80       1.19320E-02
   457    525.60       1.18997E-02
   458    526.40       1.18674E-02
   459    527.20       1.18352E-02
   460    528.00       1.18030E-02
   461    528.80       1.17709E-02
   462    529.60       1.17388E-02
   463    530.40       1.17068E-02
   464    531.20       1.16748E-02
   465    532.00       1.16428E-02
   466    532.80       1.16109E-02
   467    533.60       1.15791E-02
   468    534.40       1.15473E-02
   469    535.20       1.15155E-02
   470    536.00       1.14839E-02
   471    536.80       1.14522E-02
   472    537.60       1.14206E-02
   473    538.40       1.13891E-02
   474    539.20       1.13576E-02
   475    540.00       1.13262E-02
   476    540.80       1.12949E-02
   477    541.60       1.12636E-02
   478    542.40       1.12323E-02
   479    543.20       1.12011E-02
   480    544.00       1.11700E-02
   481    544.80       1.11389E-02
   482    545.60       1.11079E-02
   483    546.40       1.10769E-02
   484    547.20       1.10460E-02
   485    548.00       1.10152E-02
   486    548.80       1.09844E-02
   487    549.60       1.09537E-02
   488    550.40       1.09230E-02
   489    551.20       1.08924E-02
   490    552.00       1.08619E-02
   491    552.80       1.08314E-02
   492    553.60       1.08010E-02
   493    554.40       1.07706E-02
   494    555.20       1.07403E-02
   495    556.00       1.07101E-02
   496    556.80       1.06799E-02
   497    557.60       1.06498E-02
   498    558.40       1.06198E-02
   499    559.20       1.05898E-02
   500    560.00       1.05599E-02
   501    560.80       1.05300E-02
   502    561.60       1.05003E-02
   503    562.40       1.04705E-02
   504    563.20       1.04409E-02
   505    564.00       1.04113E-02
   506    564.80       1.03818E-02
   507    565.60       1.03523E-02
   508    566.40       1.03229E-02
   509    567.20       1.02936E-02
   510    568.00       1.02643E-02
   511    568.80       1.02351E-02
   512    569.60       1.02060E-02
   513    570.40       1.01770E-02
   514    571.20       1.01480E-02
   515    572.00       1.01190E-02
   516    572.80       1.00902E-02
   517    573.60       1.00614E-02
   518    574.40       1.00327E-02
   519    575.20       1.00040E-02
   520    576.00       9.97543E-03
   521    576.80       9.94692E-03
   522    577.60       9.91847E-03
   523    578.40       9.89009E-03
   524    579.20       9.86177E-03
   525    580.00       9.83353E-03
   526    580.80       9.80536E-03
   527    581.60       9.77725E-03
   528    582.40       9.74922E-03
   529    583.20       9.72125E-03
   530    584.00       9.69335E-03
   531    584.80       9.66552E-03
   532    585.60       9.63776E-03
   533    586.40       9.61007E-03
   534    587.20       9.58246E-03
   535    588.00       9.55491E-03
   536    588.80       9.52742E-03
   537    589.60       9.50001E-03
   538    590.40       9.47267E-03
   539    591.20       9.44540E-03
   540    592.00       9.41820E-03
   541    592.80       9.39107E-03
   542    593.60       9.36401E-03
   543    594.40       9.33702E-03
   544    595.20       9.31010E-03
   545    596.00       9.28325E-03
   546    596.80       9.25647E-03
   547    597.60       9.22976E-03
   548    598.40       9.20312E-03
   549    599.20       9.17656E-03
   550    600.00       9.15006E-03
   551    600.80       9.12363E-03
   552    601.60       9.09727E-03
   553    602.40       9.07099E-03
   554    603.20       9.04477E-03
   555    604.00       9.01862E-03
   556    604.80       8.99254E-03
   557    605.60       8.96654E-03
   558    606.40       8.94060E-03
   559    607.20       8.91474E-03
   560    607.99       8.88894E-03
   561    608.79       8.86321E-03
   562    609.59       8.83756E-03
   563    610.39       8.81198E-03
   564    611.19       8.78646E-03
   565    611.99       8.76102E-03
   566    612.79       8.73565E-03
   567    613.59       8.71034E-03
   568    614.39       8.68511E-03
   569    615.19       8.65995E-03
   570    615.99       8.63485E-03
   571    616.79       8.60983E-03
   572    617.59       8.58488E-03
   573    618.39       8.55999E-03
   574    619.19       8.53518E-03
   575    619.99       8.51043E-03
   576    620.79       8.48576E-03
   577    621.59       8.46115E-03
   578    622.39       8.43662E-03
   579    623.19       8.41215E-03
   580    623.99       8.38776E-03
   581    624.79       8.36343E-03
   582    625.59       8.33917E-03
   583    626.39       8.31498E-03
   584    627.19       8.29086E-03
   585    627.99       8.26681E-03
   586    628.79       8.24283E-03
   587    629.59       8.21892E-03
   588    630.39       8.19507E-03
   589    631.19       8.17130E-03
   590    631.99       8.14759E-03
   591    632.79       8.12396E-03
   592    633.59       8.10039E-03
   593    634.39       8.07689E-03
   594    635.19       8.05345E-03
   595    635.99       8.03009E-03
   596    636.79       8.00679E-03
   597    637.59       7.98356E-03
   598    638.39       7.96040E-03
   599    639.19       7.93731E-03
   600    639.99       7.91429E-03
   601    640.79       7.89133E-03
   602    641.59       7.86844E-03
   603    642.39       7.84562E-03
   604    643.19       7.82286E-03
   605    643.99       7.80018E-03
   606    644.79       7.77756E-03
   607    645.59       7.75500E-03
   608    646.39       7.73252E-03
   609    647.19       7.71009E-03
   610    647.99       7.68774E-03
   611    648.79       7.66546E-03
   612    649.59       7.64324E-03
   613    650.39       7.62108E-03
   614    651.19       7.59899E-03
   615    651.99       7.57697E-03
   616    652.79       7.55501E-03
   617    653.59       7.53312E-03
   618    654.39       7.51130E-03
   619    655.19       7.48954E-03
   620    655.99       7.46785E-03
   621    656.79       7.44622E-03
   622    657.59       7.42466E-03
   623    658.39       7.40316E-03
   624    659.19       7.38173E-03
   625    659.99       7.36036E-03
   626    660.79       7.33906E-03
   627    661.59       7.31782E-03
   628    662.39       7.29665E-03
   629    663.19       7.27554E-03
   630    663.99       7.25449E-03
   631    664.79       7.23351E-03
   632    665.59       7.21259E-03
   633    666.39       7.19173E-03
   634    667.19       7.17095E-03
   635    667.99       7.15022E-03
   636    668.79       7.12956E-03
   637    669.59       7.10895E-03
   638    670.39       7.08842E-03
   639    671.19       7.06794E-03
   640    671.99       7.04753E-03
   641    672.79       7.02718E-03
   642    673.59       7.00689E-03
   643    674.39       6.98667E-03
   644    675.19       6.96651E-03
   645    675.99       6.94641E-03
   646    676.79       6.92637E-03
   647    677.59       6.90639E-03
   648    678.39       6.88648E-03
   649    679.19       6.86662E-03
   650    679.99       6.84683E-03
   651    680.79       6.82710E-03
   652    681.59       6.80743E-03
   653    682.39       6.78782E-03
   654    683.19       6.76827E-03
   655    683.99       6.74879E-03
   656    684.79       6.72936E-03
   657    685.59       6.70999E-03
   658    686.39       6.69068E-03
   659    687.19       6.67144E-03
   660    687.99       6.65225E-03
   661    688.79       6.63312E-03
   662    689.59       6.61406E-03
   663    690.39       6.59505E-03
   664    691.19       6.57610E-03
   665    691.99       6.55721E-03
   666    692.79       6.53838E-03
   667    693.59       6.51961E-03
   668    694.39       6.50089E-03
   669    695.19       6.48224E-03
   670    695.99       6.46364E-03
   671    696.79       6.44510E-03
   672    697.59       6.42662E-03
   673    698.39       6.40820E-03
   674    699.19       6.38984E-03
   675    699.99       6.37153E-03
   676    700.79       6.35328E-03
   677    701.59       6.33509E-03
   678    702.39       6.31695E-03
   679    703.19       6.29887E-03
   680    703.99       6.28085E-03
   681    704.79       6.26289E-03
   682    705.59       6.24498E-03
   683    706.39       6.22713E-03
   684    707.19       6.20933E-03
   685    707.99       6.19159E-03
   686    708.79       6.17391E-03
   687    709.59       6.15628E-03
   688    710.39       6.13871E-03
   689    711.19       6.12119E-03
   690    711.99       6.10373E-03
   691    712.79       6.08632E-03
   692    713.59       6.06897E-03
   693    714.39       6.05167E-03
   694    715.19       6.03443E-03
   695    715.99       6.01725E-03
   696    716.79       6.00011E-03
   697    717.59       5.98303E-03
   698    718.39       5.96601E-03
   699    719.19       5.94904E-03
   700    719.99       5.93212E-03
   701    720.79       5.91526E-03
   702    721.59       5.89845E-03
   703    722.39       5.88169E-03
   704    723.19       5.86498E-03
   705    723.99       5.84833E-03
   706    724.79       5.83173E-03
   707    725.59       5.81519E-03
   708    726.39       5.79870E-03
   709    727.19       5.78225E-03
   710    727.99       5.76587E-03
   711    728.79       5.74953E-03
   712    729.59       5.73325E-03
   713    730.39       5.71701E-03
   714    731.19       5.70083E-03
   715    731.99       5.68470E-03
   716    732.79       5.66862E-03
   717    733.59       5.65260E-03
   718    734.39       5.63662E-03
   719    735.19       5.62069E-03
   720    735.99       5.60482E-03
   721    736.79       5.58899E-03
   722    737.59       5.57322E-03
   723    738.39       5.55750E-03
   724    739.19       5.54182E-03
   725    739.99       5.52620E-03
   726    740.79       5.51062E-03
   727    741.59       5.49510E-03
   728    742.39       5.47963E-03
   729    743.19       5.46420E-03
   730    743.99       5.44882E-03
   731    744.79       5.43350E-03
   732    745.59       5.41822E-03
   733    746.39       5.40299E-03
   734    747.19       5.38780E-03
   735    747.99       5.37267E-03
   736    748.79       5.35759E-03
   737    749.59       5.34255E-03
   738    750.39       5.32756E-03
   739    751.19       5.31262E-03
   740    751.99       5.29773E-03
   741    752.79       5.28288E-03
   742    753.59       5.26808E-03
   743    754.39       5.25333E-03
   744    755.19       5.23863E-03
   745    755.99       5.22397E-03
   746    756.79       5.20936E-03
   747    757.59       5.19480E-03
   748    758.39       5.18028E-03
   749    759.19       5.16581E-03
   750    759.99       5.15138E-03
   751    760.79       5.13700E-03
   752    761.59       5.12267E-03
   753    762.39       5.10839E-03
   754    763.19       5.09414E-03
   755    763.99       5.07995E-03
   756    764.79       5.06580E-03
   757    765.59       5.05169E-03
   758    766.39       5.03763E-03
   759    767.19       5.02361E-03
   760    767.99       5.00964E-03
   761    768.79       4.99572E-03
   762    769.59       4.98183E-03
   763    770.39       4.96800E-03
   764    771.19       4.95420E-03
   765    771.99       4.94045E-03
   766    772.79       4.92675E-03
   767    773.59       4.91309E-03
   768    774.39       4.89947E-03
   769    775.19       4.88589E-03
   770    775.99       4.87236E-03
   771    776.79       4.85887E-03
   772    777.59       4.84543E-03
   773    778.39       4.83203E-03
   774    779.19       4.81867E-03
   775    779.99       4.80535E-03
   776    780.79       4.79208E-03
   777    781.59       4.77884E-03
   778    782.39       4.76565E-03
   779    783.19       4.75251E-03
   780    783.99       4.73940E-03
   781    784.79       4.72634E-03
   782    785.59       4.71332E-03
   783    786.39       4.70034E-03
   784    787.19       4.68740E-03
   785    787.99       4.67450E-03
   786    788.79       4.66164E-03
   787    789.59       4.64883E-03
   788    790.39       4.63605E-03
   789    791.19       4.62332E-03
   790    791.99       4.61062E-03
   791    792.79       4.59797E-03
   792    793.59       4.58536E-03
   793    794.39       4.57278E-03
   794    795.19       4.56025E-03
   795    795.99       4.54776E-03
   796    796.79       4.53531E-03
   797    797.59       4.52289E-03
   798    798.39       4.51052E-03
   799    799.19       4.49819E-03
   800    799.99       4.48589E-03
   801    800.79       4.47363E-03
   802    801.59       4.46142E-03
   803    802.39       4.44924E-03
   804    803.19       4.43710E-03
   805    803.99       4.42500E-03
   806    804.79       4.41294E-03
   807    805.59       4.40091E-03
   808    806.39       4.38893E-03
   809    807.19       4.37698E-03
   810    807.99       4.36507E-03
   811    808.79       4.35320E-03
   812    809.59       4.34137E-03
   813    810.39       4.32957E-03
   814    811.19       4.31781E-03
   815    811.99       4.30609E-03
   816    812.79       4.29441E-03
   817    813.59       4.28276E-03
   818    814.39       4.27115E-03
   819    815.19       4.25958E-03
   820    815.99       4.24804E-03
   821    816.79       4.23654E-03
   822    817.59       4.22508E-03
   823    818.39       4.21365E-03
   824    819.19       4.20226E-03
   825    819.99       4.19091E-03
   826    820.79       4.17959E-03
   827    821.59       4.16831E-03
   828    822.39       4.15706E-03
   829    823.19       4.14585E-03
   830    823.99       4.13467E-03
   831    824.79       4.12353E-03
   832    825.59       4.11243E-03
   833    826.39       4.10136E-03
   834    827.19       4.09033E-03
   835    827.99       4.07933E-03
   836    828.79       4.06836E-03
   837    829.59       4.05743E-03
   838    830.39       4.04653E-03
   839    831.19       4.03567E-03
   840    831.99       4.02485E-03
   841    832.79       4.01405E-03
   842    833.59       4.00330E-03
   843    834.39       3.99257E-03
   844    835.19       3.98188E-03
   845    835.99       3.97123E-03
   846    836.79       3.96060E-03
   847    837.59       3.95001E-03
   848    838.39       3.93946E-03
   849    839.19       3.92893E-03
   850    839.99       3.91844E-03
   851    840.79       3.90799E-03
   852    841.59       3.89756E-03
   853    842.39       3.88717E-03
   854    843.19       3.87682E-03
   855    843.99       3.86649E-03
   856    844.79       3.85620E-03
   857    845.59       3.84594E-03
   858    846.39       3.83571E-03
   859    847.19       3.82552E-03
   860    847.99       3.81535E-03
   861    848.79       3.80522E-03
   862    849.59       3.79512E-03
   863    850.39       3.78505E-03
   864    851.19       3.77502E-03
   865    851.99       3.76501E-03
   866    852.79       3.75504E-03
   867    853.59       3.74510E-03
   868    854.39       3.73519E-03
   869    855.19       3.72531E-03
   870    855.99       3.71546E-03
   871    856.79       3.70564E-03
   872    857.59       3.69585E-03
   873    858.39       3.68610E-03
   874    859.19       3.67637E-03
   875    859.99       3.66668E-03
   876    860.79       3.65701E-03
   877    861.59       3.64738E-03
   878    862.39       3.63778E-03
   879    863.19       3.62820E-03
   880    863.99       3.61866E-03
   881    864.79       3.60914E-03
   882    865.59       3.59966E-03
   883    866.39       3.59020E-03
   884    867.19       3.58078E-03
   885    867.99       3.57138E-03
   886    868.79       3.56202E-03
   887    869.59       3.55268E-03
   888    870.39       3.54337E-03
   889    871.19       3.53409E-03
   890    871.99       3.52484E-03
   891    872.79       3.51562E-03
   892    873.59       3.50643E-03
   893    874.39       3.49727E-03
   894    875.19       3.48813E-03
   895    875.99       3.47902E-03
   896    876.79       3.46995E-03
   897    877.59       3.46090E-03
   898    878.39       3.45187E-03
   899    879.19       3.44288E-03
   900    879.99       3.43392E-03
   901    880.79       3.42498E-03
   902    881.59       3.41607E-03
   903    882.39       3.40718E-03
   904    883.19       3.39833E-03
   905    883.99       3.38950E-03
   906    884.79       3.38070E-03
   907    885.59       3.37193E-03
   908    886.39       3.36319E-03
   909    887.19       3.35447E-03
   910    887.99       3.34578E-03
   911    888.79       3.33711E-03
   912    889.59       3.32848E-03
   913    890.39       3.31987E-03
   914    891.19       3.31128E-03
   915    891.99       3.30273E-03
   916    892.79       3.29420E-03
   917    893.59       3.28569E-03
   918    894.39       3.27722E-03
   919    895.19       3.26876E-03
   920    895.99       3.26034E-03
   921    896.79       3.25194E-03
   922    897.59       3.24357E-03
   923    898.39       3.23522E-03
   924    899.19       3.22690E-03
   925    899.99       3.21860E-03
   926    900.79       3.21033E-03
   927    901.59       3.20208E-03
   928    902.39       3.19387E-03
   929    903.19       3.18567E-03
   930    903.99       3.17750E-03
   931    904.79       3.16936E-03
   932    905.59       3.16124E-03
   933    906.39       3.15315E-03
   934    907.19       3.14508E-03
   935    907.99       3.13703E-03
   936    908.79       3.12902E-03
   937    909.59       3.12102E-03
   938    910.39       3.11305E-03
   939    911.19       3.10511E-03
   940    911.99       3.09718E-03
   941    912.79       3.08929E-03
   942    913.59       3.08142E-03
   943    914.39       3.07357E-03
   944    915.19       3.06574E-03
   945    915.99       3.05794E-03
   946    916.79       3.05017E-03
   947    917.59       3.04241E-03
   948    918.39       3.03469E-03
   949    919.19       3.02698E-03
   950    919.99       3.01930E-03
   951    920.79       3.01164E-03
   952    921.59       3.00401E-03
   953    922.39       2.99639E-03
   954    923.19       2.98881E-03
   955    923.99       2.98124E-03
   956    924.79       2.97370E-03
   957    925.59       2.96618E-03
   958    926.39       2.95868E-03
   959    927.19       2.95121E-03
   960    927.99       2.94376E-03
   961    928.79       2.93634E-03
   962    929.59       2.92893E-03
   963    930.39       2.92155E-03
   964    931.19       2.91419E-03
   965    931.99       2.90685E-03
   966    932.79       2.89954E-03
   967    933.59       2.89224E-03
   968    934.39       2.88497E-03
   969    935.19       2.87772E-03
   970    935.99       2.87050E-03
   971    936.79       2.86329E-03
   972    937.59       2.85611E-03
   973    938.39       2.84895E-03
   974    939.19       2.84181E-03
   975    939.99       2.83469E-03
   976    940.79       2.82760E-03
   977    941.59       2.82052E-03
   978    942.39       2.81347E-03
   979    943.19       2.80644E-03
   980    943.99       2.79943E-03
   981    944.79       2.79244E-03
   982    945.59       2.78547E-03
   983    946.39       2.77852E-03
   984    947.19       2.77160E-03
   985    947.99       2.76469E-03
   986    948.79       2.75781E-03
   987    949.59       2.75095E-03
   988    950.39       2.74410E-03
   989    951.19       2.73728E-03
   990    951.99       2.73048E-03
   991    952.79       2.72370E-03
   992    953.59       2.71694E-03
   993    954.39       2.71020E-03
   994    955.19       2.70348E-03
   995    955.99       2.69678E-03
   996    956.79       2.69010E-03
   997    957.59       2.68344E-03
   998    958.39       2.67680E-03
   999    959.19       2.67018E-03
  1000    959.99       2.66358E-03
  1001    960.79       2.65700E-03
  1002    961.59       2.65044E-03
  1003    962.39       2.64390E-03
  1004    963.19       2.63738E-03
  1005    963.99       2.63088E-03
  1006    964.79       2.62440E-03
  1007    965.59       2.61793E-03
  1008    966.39       2.61149E-03
  1009    967.19       2.60507E-03
  1010    967.99       2.59866E-03
  1011    968.79       2.59228E-03
  1012    969.59       2.58591E-03
  1013    970.39       2.57956E-03
  1014    971.19       2.57323E-03
  1015    971.99       2.56693E-03
  1016    972.79       2.56064E-03
  1017    973.59       2.55436E-03
  1018    974.39       2.54811E-03
  1019    975.19       2.54188E-03
  1020    975.99       2.53566E-03
  1021    976.79       2.52946E-03
  1022    977.59       2.52328E-03
  1023    978.39       2.51712E-03
  1024    979.19       2.51098E-03
  1025    979.99       2.50486E-03
  1026    980.79       2.49875E-03
  1027    981.59       2.49266E-03
  1028    982.39       2.48659E-03
  1029    983.19       2.48054E-03
  1030    983.99       2.47451E-03
  1031    984.79       2.46849E-03
  1032    985.59       2.46249E-03
  1033    986.39       2.45651E-03
  1034    987.19       2.45055E-03
  1035    987.99       2.44461E-03
  1036    988.79       2.43868E-03
  1037    989.59       2.43277E-03
  1038    990.39       2.42688E-03
  1039    991.19       2.42100E-03
  1040    991.99       2.41514E-03
  1041    992.79       2.40930E-03
  1042    993.59       2.40348E-03
  1043    994.39       2.39767E-03
  1044    995.19       2.39189E-03
  1045    995.99       2.38611E-03
  1046    996.79       2.38036E-03
  1047    997.59       2.37462E-03
  1048    998.39       2.36890E-03
  1049    999.19       2.36320E-03
  1050    999.99       2.35751E-03
  1051    1000.8       2.35184E-03
  1052    1001.6       2.34618E-03
  1053    1002.4       2.34055E-03
  1054    1003.2       2.33493E-03
  1055    1004.0       2.32932E-03
  1056    1004.8       2.32374E-03
  1057    1005.6       2.31816E-03
  1058    1006.4       2.31261E-03
  1059    1007.2       2.30707E-03
  1060    1008.0       2.30155E-03
  1061    1008.8       2.29604E-03
  1062    1009.6       2.29055E-03
  1063    1010.4       2.28508E-03
  1064    1011.2       2.27962E-03
  1065    1012.0       2.27418E-03
  1066    1012.8       2.26875E-03
  1067    1013.6       2.26334E-03
  1068    1014.4       2.25795E-03
  1069    1015.2       2.25257E-03
  1070    1016.0       2.24720E-03
  1071    1016.8       2.24186E-03
  1072    1017.6       2.23652E-03
  1073    1018.4       2.23121E-03
  1074    1019.2       2.22591E-03
  1075    1020.0       2.22062E-03
  1076    1020.8       2.21535E-03
  1077    1021.6       2.21010E-03
  1078    1022.4       2.20486E-03
  1079    1023.2       2.19963E-03
  1080    1024.0       2.19442E-03
  1081    1024.8       2.18923E-03
  1082    1025.6       2.18405E-03
  1083    1026.4       2.17889E-03
  1084    1027.2       2.17374E-03
  1085    1028.0       2.16860E-03
  1086    1028.8       2.16348E-03
  1087    1029.6       2.15838E-03
  1088    1030.4       2.15329E-03
  1089    1031.2       2.14821E-03
  1090    1032.0       2.14315E-03
  1091    1032.8       2.13811E-03
  1092    1033.6       2.13308E-03
  1093    1034.4       2.12806E-03
  1094    1035.2       2.12306E-03
  1095    1036.0       2.11807E-03
  1096    1036.8       2.11310E-03
  1097    1037.6       2.10814E-03
  1098    1038.4       2.10319E-03
  1099    1039.2       2.09826E-03
  1100    1040.0       2.09335E-03
  1101    1040.8       2.08845E-03
  1102    1041.6       2.08356E-03
  1103    1042.4       2.07868E-03
  1104    1043.2       2.07382E-03
  1105    1044.0       2.06898E-03
  1106    1044.8       2.06415E-03
  1107    1045.6       2.05933E-03
  1108    1046.4       2.05452E-03
  1109    1047.2       2.04973E-03
  1110    1048.0       2.04496E-03
  1111    1048.8       2.04019E-03
  1112    1049.6       2.03544E-03
  1113    1050.4       2.03071E-03
  1114    1051.2       2.02599E-03
  1115    1052.0       2.02128E-03
  1116    1052.8       2.01658E-03
  1117    1053.6       2.01190E-03
  1118    1054.4       2.00723E-03
  1119    1055.2       2.00258E-03
  1120    1056.0       1.99793E-03
  1121    1056.8       1.99330E-03
  1122    1057.6       1.98869E-03
  1123    1058.4       1.98409E-03
  1124    1059.2       1.97950E-03
  1125    1060.0       1.97492E-03
  1126    1060.8       1.97036E-03
  1127    1061.6       1.96581E-03
  1128    1062.4       1.96127E-03
  1129    1063.2       1.95675E-03
  1130    1064.0       1.95223E-03
  1131    1064.8       1.94774E-03
  1132    1065.6       1.94325E-03
  1133    1066.4       1.93878E-03
  1134    1067.2       1.93432E-03
  1135    1068.0       1.92987E-03
  1136    1068.8       1.92543E-03
  1137    1069.6       1.92101E-03
  1138    1070.4       1.91660E-03
  1139    1071.2       1.91220E-03
  1140    1072.0       1.90782E-03
  1141    1072.8       1.90344E-03
  1142    1073.6       1.89908E-03
  1143    1074.4       1.89473E-03
  1144    1075.2       1.89040E-03
  1145    1076.0       1.88607E-03
  1146    1076.8       1.88176E-03
  1147    1077.6       1.87746E-03
  1148    1078.4       1.87318E-03
  1149    1079.2       1.86890E-03
  1150    1080.0       1.86464E-03
  1151    1080.8       1.86039E-03
  1152    1081.6       1.85615E-03
  1153    1082.4       1.85192E-03
  1154    1083.2       1.84770E-03
  1155    1084.0       1.84350E-03
  1156    1084.8       1.83931E-03
  1157    1085.6       1.83513E-03
  1158    1086.4       1.83096E-03
  1159    1087.2       1.82680E-03
  1160    1088.0       1.82266E-03
  1161    1088.8       1.81852E-03
  1162    1089.6       1.81440E-03
  1163    1090.4       1.81029E-03
  1164    1091.2       1.80619E-03
  1165    1092.0       1.80211E-03
  1166    1092.8       1.79803E-03
  1167    1093.6       1.79396E-03
  1168    1094.4       1.78991E-03
  1169    1095.2       1.78587E-03
  1170    1096.0       1.78184E-03
  1171    1096.8       1.77782E-03
  1172    1097.6       1.77381E-03
  1173    1098.4       1.76981E-03
  1174    1099.2       1.76583E-03
  1175    1100.0       1.76185E-03
  1176    1100.8       1.75789E-03
  1177    1101.6       1.75394E-03
  1178    1102.4       1.74999E-03
  1179    1103.2       1.74606E-03
  1180    1104.0       1.74214E-03
  1181    1104.8       1.73823E-03
  1182    1105.6       1.73434E-03
  1183    1106.4       1.73045E-03
  1184    1107.2       1.72657E-03
  1185    1108.0       1.72271E-03
  1186    1108.8       1.71885E-03
  1187    1109.6       1.71501E-03
  1188    1110.4       1.71117E-03
  1189    1111.2       1.70735E-03
  1190    1112.0       1.70354E-03
  1191    1112.8       1.69974E-03
  1192    1113.6       1.69594E-03
  1193    1114.4       1.69216E-03
  1194    1115.2       1.68839E-03
  1195    1116.0       1.68463E-03
  1196    1116.8       1.68088E-03
  1197    1117.6       1.67714E-03
  1198    1118.4       1.67341E-03
  1199    1119.2       1.66969E-03
  1200    1120.0       1.66598E-03
  1201    1120.8       1.66229E-03
  1202    1121.6       1.65860E-03
  1203    1122.4       1.65492E-03
  1204    1123.2       1.65125E-03
  1205    1124.0       1.64759E-03
  1206    1124.8       1.64394E-03
  1207    1125.6       1.64031E-03
  1208    1126.4       1.63668E-03
  1209    1127.2       1.63306E-03
  1210    1128.0       1.62945E-03
  1211    1128.8       1.62585E-03
  1212    1129.6       1.62226E-03
  1213    1130.4       1.61869E-03
  1214    1131.2       1.61512E-03
  1215    1132.0       1.61156E-03
  1216    1132.8       1.60801E-03
  1217    1133.6       1.60447E-03
  1218    1134.4       1.60094E-03
  1219    1135.2       1.59742E-03
  1220    1136.0       1.59391E-03
  1221    1136.8       1.59041E-03
  1222    1137.6       1.58691E-03
  1223    1138.4       1.58343E-03
  1224    1139.2       1.57996E-03
  1225    1140.0       1.57649E-03
  1226    1140.8       1.57304E-03
  1227    1141.6       1.56960E-03
  1228    1142.4       1.56616E-03
  1229    1143.2       1.56273E-03
  1230    1144.0       1.55932E-03
  1231    1144.8       1.55591E-03
  1232    1145.6       1.55251E-03
  1233    1146.4       1.54912E-03
  1234    1147.2       1.54574E-03
  1235    1148.0       1.54237E-03
  1236    1148.8       1.53901E-03
  1237    1149.6       1.53566E-03
  1238    1150.4       1.53232E-03
  1239    1151.2       1.52898E-03
  1240    1152.0       1.52566E-03
  1241    1152.8       1.52234E-03
  1242    1153.6       1.51903E-03
  1243    1154.4       1.51573E-03
  1244    1155.2       1.51244E-03
  1245    1156.0       1.50916E-03
  1246    1156.8       1.50589E-03
  1247    1157.6       1.50263E-03
  1248    1158.4       1.49937E-03
  1249    1159.2       1.49613E-03
  1250    1160.0       1.49289E-03
  1251    1160.8       1.48966E-03
  1252    1161.6       1.48644E-03
  1253    1162.4       1.48323E-03
  1254    1163.2       1.48003E-03
  1255    1164.0       1.47684E-03
  1256    1164.8       1.47365E-03
  1257    1165.6       1.47048E-03
  1258    1166.4       1.46731E-03
  1259    1167.2       1.46415E-03
  1260    1168.0       1.46100E-03
  1261    1168.8       1.45786E-03
  1262    1169.6       1.45472E-03
  1263    1170.4       1.45160E-03
  1264    1171.2       1.44848E-03
  1265    1172.0       1.44537E-03
  1266    1172.8       1.44227E-03
  1267    1173.6       1.43918E-03
  1268    1174.4       1.43609E-03
  1269    1175.2       1.43302E-03
  1270    1176.0       1.42995E-03
  1271    1176.8       1.42689E-03
  1272    1177.6       1.42384E-03
  1273    1178.4       1.42079E-03
  1274    1179.2       1.41776E-03
  1275    1180.0       1.41473E-03
  1276    1180.8       1.41171E-03
  1277    1181.6       1.40870E-03
  1278    1182.4       1.40570E-03
  1279    1183.2       1.40270E-03
  1280    1184.0       1.39971E-03
  1281    1184.8       1.39673E-03
  1282    1185.6       1.39376E-03
  1283    1186.4       1.39080E-03
  1284    1187.2       1.38784E-03
  1285    1188.0       1.38489E-03
  1286    1188.8       1.38195E-03
  1287    1189.6       1.37902E-03
  1288    1190.4       1.37610E-03
  1289    1191.2       1.37318E-03
  1290    1192.0       1.37027E-03
  1291    1192.8       1.36737E-03
  1292    1193.6       1.36447E-03
  1293    1194.4       1.36159E-03
  1294    1195.2       1.35871E-03
  1295    1196.0       1.35584E-03
  1296    1196.8       1.35298E-03
  1297    1197.6       1.35012E-03
  1298    1198.4       1.34727E-03
  1299    1199.2       1.34443E-03
  1300    1200.0       1.34160E-03
  1301    1200.8       1.33877E-03
  1302    1201.6       1.33595E-03
  1303    1202.4       1.33314E-03
  1304    1203.2       1.33033E-03
  1305    1204.0       1.32754E-03
  1306    1204.8       1.32475E-03
  1307    1205.6       1.32197E-03
  1308    1206.4       1.31919E-03
  1309    1207.2       1.31642E-03
  1310    1208.0       1.31366E-03
  1311    1208.8       1.31091E-03
  1312    1209.6       1.30817E-03
  1313    1210.4       1.30543E-03
  1314    1211.2       1.30270E-03
  1315    1212.0       1.29997E-03
  1316    1212.8       1.29725E-03
  1317    1213.6       1.29454E-03
  1318    1214.4       1.29184E-03
  1319    1215.2       1.28914E-03
  1320    1216.0       1.28646E-03
  1321    1216.8       1.28377E-03
  1322    1217.6       1.28110E-03
  1323    1218.4       1.27843E-03
  1324    1219.2       1.27577E-03
  1325    1220.0       1.27311E-03
  1326    1220.8       1.27047E-03
  1327    1221.6       1.26783E-03
  1328    1222.4       1.26519E-03
  1329    1223.2       1.26257E-03
  1330    1224.0       1.25994E-03
  1331    1224.8       1.25733E-03
  1332    1225.6       1.25473E-03
  1333    1226.4       1.25213E-03
  1334    1227.2       1.24953E-03
  1335    1228.0       1.24695E-03
  1336    1228.8       1.24437E-03
  1337    1229.6       1.24179E-03
  1338    1230.4       1.23923E-03
  1339    1231.2       1.23667E-03
  1340    1232.0       1.23411E-03
  1341    1232.8       1.23157E-03
  1342    1233.6       1.22903E-03
  1343    1234.4       1.22649E-03
  1344    1235.2       1.22397E-03
  1345    1236.0       1.22145E-03
  1346    1236.8       1.21893E-03
  1347    1237.6       1.21642E-03
  1348    1238.4       1.21392E-03
  1349    1239.2       1.21143E-03
  1350    1240.0       1.20894E-03
  1351    1240.8       1.20646E-03
  1352    1241.6       1.20398E-03
  1353    1242.4       1.20151E-03
  1354    1243.2       1.19905E-03
  1355    1244.0       1.19659E-03
  1356    1244.8       1.19414E-03
  1357    1245.6       1.19170E-03
  1358    1246.4       1.18926E-03
  1359    1247.2       1.18683E-03
  1360    1248.0       1.18441E-03
  1361    1248.8       1.18199E-03
  1362    1249.6       1.17957E-03
  1363    1250.4       1.17717E-03
  1364    1251.2       1.17477E-03
  1365    1252.0       1.17237E-03
  1366    1252.8       1.16998E-03
  1367    1253.6       1.16760E-03
  1368    1254.4       1.16522E-03
  1369    1255.2       1.16285E-03
  1370    1256.0       1.16049E-03
  1371    1256.8       1.15813E-03
  1372    1257.6       1.15578E-03
  1373    1258.4       1.15343E-03
  1374    1259.2       1.15109E-03
  1375    1260.0       1.14876E-03
  1376    1260.8       1.14643E-03
  1377    1261.6       1.14411E-03
  1378    1262.4       1.14179E-03
  1379    1263.2       1.13948E-03
  1380    1264.0       1.13718E-03
  1381    1264.8       1.13488E-03
  1382    1265.6       1.13258E-03
  1383    1266.4       1.13030E-03
  1384    1267.2       1.12801E-03
  1385    1268.0       1.12574E-03
  1386    1268.8       1.12347E-03
  1387    1269.6       1.12120E-03
  1388    1270.4       1.11894E-03
  1389    1271.2       1.11669E-03
  1390    1272.0       1.11444E-03
  1391    1272.8       1.11220E-03
  1392    1273.6       1.10997E-03
  1393    1274.4       1.10774E-03
  1394    1275.2       1.10551E-03
  1395    1276.0       1.10329E-03
  1396    1276.8       1.10108E-03
  1397    1277.6       1.09887E-03
  1398    1278.4       1.09667E-03
  1399    1279.2       1.09447E-03
  1400    1280.0       1.09228E-03
  1401    1280.8       1.09009E-03
  1402    1281.6       1.08791E-03
  1403    1282.4       1.08574E-03
  1404    1283.2       1.08357E-03
  1405    1284.0       1.08140E-03
  1406    1284.8       1.07924E-03
  1407    1285.6       1.07709E-03
  1408    1286.4       1.07494E-03
  1409    1287.2       1.07280E-03
  1410    1288.0       1.07066E-03
  1411    1288.8       1.06853E-03
  1412    1289.6       1.06640E-03
  1413    1290.4       1.06428E-03
  1414    1291.2       1.06217E-03
  1415    1292.0       1.06006E-03
  1416    1292.8       1.05795E-03
  1417    1293.6       1.05585E-03
  1418    1294.4       1.05376E-03
  1419    1295.2       1.05167E-03
  1420    1296.0       1.04958E-03
  1421    1296.8       1.04750E-03
  1422    1297.6       1.04543E-03
  1423    1298.4       1.04336E-03
  1424    1299.2       1.04129E-03
  1425    1300.0       1.03923E-03
  1426    1300.8       1.03718E-03
  1427    1301.6       1.03513E-03
  1428    1302.4       1.03309E-03
  1429    1303.2       1.03105E-03
  1430    1304.0       1.02902E-03
  1431    1304.8       1.02699E-03
  1432    1305.6       1.02496E-03
  1433    1306.4       1.02294E-03
  1434    1307.2       1.02093E-03
  1435    1308.0       1.01892E-03
  1436    1308.8       1.01692E-03
  1437    1309.6       1.01492E-03
  1438    1310.4       1.01293E-03
  1439    1311.2       1.01094E-03
  1440    1312.0       1.00895E-03
  1441    1312.8       1.00697E-03
  1442    1313.6       1.00500E-03
  1443    1314.4       1.00303E-03
  1444    1315.2       1.00107E-03
  1445    1316.0       9.99107E-04
  1446    1316.8       9.97152E-04
  1447    1317.6       9.95202E-04
  1448    1318.4       9.93256E-04
  1449    1319.2       9.91316E-04
  1450    1320.0       9.89380E-04
  1451    1320.8       9.87449E-04
  1452    1321.6       9.85523E-04
  1453    1322.4       9.83601E-04
  1454    1323.2       9.81684E-04
  1455    1324.0       9.79772E-04
  1456    1324.8       9.77865E-04
  1457    1325.6       9.75962E-04
  1458    1326.4       9.74063E-04
  1459    1327.2       9.72170E-04
  1460    1328.0       9.70281E-04
  1461    1328.8       9.68396E-04
  1462    1329.6       9.66517E-04
  1463    1330.4       9.64641E-04
  1464    1331.2       9.62771E-04
  1465    1332.0       9.60905E-04
  1466    1332.8       9.59043E-04
  1467    1333.6       9.57186E-04
  1468    1334.4       9.55333E-04
  1469    1335.2       9.53485E-04
  1470    1336.0       9.51642E-04
  1471    1336.8       9.49803E-04
  1472    1337.6       9.47968E-04
  1473    1338.4       9.46138E-04
  1474    1339.2       9.44312E-04
  1475    1340.0       9.42491E-04
  1476    1340.8       9.40674E-04
  1477    1341.6       9.38861E-04
  1478    1342.4       9.37053E-04
  1479    1343.2       9.35249E-04
  1480    1344.0       9.33450E-04
  1481    1344.8       9.31655E-04
  1482    1345.6       9.29864E-04
  1483    1346.4       9.28078E-04
  1484    1347.2       9.26296E-04
  1485    1348.0       9.24518E-04
  1486    1348.8       9.22745E-04
  1487    1349.6       9.20976E-04
  1488    1350.4       9.19211E-04
  1489    1351.2       9.17450E-04
  1490    1352.0       9.15694E-04
  1491    1352.8       9.13941E-04
  1492    1353.6       9.12193E-04
  1493    1354.4       9.10450E-04
  1494    1355.2       9.08710E-04
  1495    1356.0       9.06975E-04
  1496    1356.8       9.05243E-04
  1497    1357.6       9.03516E-04
  1498    1358.4       9.01793E-04
  1499    1359.2       9.00074E-04
  1500    1360.0       8.98360E-04
  1501    1360.8       8.96649E-04
  1502    1361.6       8.94942E-04
  1503    1362.4       8.93240E-04
  1504    1363.2       8.91542E-04
  1505    1364.0       8.89847E-04
  1506    1364.8       8.88157E-04
  1507    1365.6       8.86471E-04
  1508    1366.4       8.84789E-04
  1509    1367.2       8.83110E-04
  1510    1368.0       8.81436E-04
  1511    1368.8       8.79766E-04
  1512    1369.6       8.78100E-04
  1513    1370.4       8.76437E-04
  1514    1371.2       8.74779E-04
  1515    1372.0       8.73125E-04
  1516    1372.8       8.71474E-04
  1517    1373.6       8.69828E-04
  1518    1374.4       8.68185E-04
  1519    1375.2       8.66547E-04
  1520    1376.0       8.64912E-04
  1521    1376.8       8.63281E-04
  1522    1377.6       8.61654E-04
  1523    1378.4       8.60031E-04
  1524    1379.2       8.58411E-04
  1525    1380.0       8.56796E-04
  1526    1380.8       8.55184E-04
  1527    1381.6       8.53576E-04
  1528    1382.4       8.51972E-04
  1529    1383.2       8.50372E-04
  1530    1384.0       8.48776E-04
  1531    1384.8       8.47183E-04
  1532    1385.6       8.45594E-04
  1533    1386.4       8.44009E-04
  1534    1387.2       8.42427E-04
  1535    1388.0       8.40850E-04
  1536    1388.8       8.39276E-04
  1537    1389.6       8.37705E-04
  1538    1390.4       8.36139E-04
  1539    1391.2       8.34576E-04
  1540    1392.0       8.33016E-04
  1541    1392.8       8.31461E-04
  1542    1393.6       8.29909E-04
  1543    1394.4       8.28361E-04
  1544    1395.2       8.26816E-04
  1545    1396.0       8.25275E-04
  1546    1396.8       8.23738E-04
  1547    1397.6       8.22204E-04
  1548    1398.4       8.20674E-04
  1549    1399.2       8.19147E-04
  1550    1400.0       8.17624E-04
  1551    1400.8       8.16105E-04
  1552    1401.6       8.14589E-04
  1553    1402.4       8.13076E-04
  1554    1403.2       8.11567E-04
  1555    1404.0       8.10062E-04
  1556    1404.8       8.08560E-04
  1557    1405.6       8.07062E-04
  1558    1406.4       8.05567E-04
  1559    1407.2       8.04076E-04
  1560    1408.0       8.02588E-04
  1561    1408.8       8.01104E-04
  1562    1409.6       7.99623E-04
  1563    1410.4       7.98145E-04
  1564    1411.2       7.96671E-04
  1565    1412.0       7.95201E-04
  1566    1412.8       7.93733E-04
  1567    1413.6       7.92270E-04
  1568    1414.4       7.90809E-04
  1569    1415.2       7.89352E-04
  1570    1416.0       7.87899E-04
  1571    1416.8       7.86449E-04
  1572    1417.6       7.85002E-04
  1573    1418.4       7.83558E-04
  1574    1419.2       7.82118E-04
  1575    1420.0       7.80681E-04
  1576    1420.8       7.79248E-04
  1577    1421.6       7.77818E-04
  1578    1422.4       7.76391E-04
  1579    1423.2       7.74967E-04
  1580    1424.0       7.73547E-04
  1581    1424.8       7.72130E-04
  1582    1425.6       7.70716E-04
  1583    1426.4       7.69306E-04
  1584    1427.2       7.67898E-04
  1585    1428.0       7.66494E-04
  1586    1428.8       7.65094E-04
  1587    1429.6       7.63696E-04
  1588    1430.4       7.62302E-04
  1589    1431.2       7.60911E-04
  1590    1432.0       7.59523E-04
  1591    1432.8       7.58138E-04
  1592    1433.6       7.56757E-04
  1593    1434.4       7.55378E-04
  1594    1435.2       7.54003E-04
  1595    1436.0       7.52632E-04
  1596    1436.8       7.51263E-04
  1597    1437.6       7.49897E-04
  1598    1438.4       7.48534E-04
  1599    1439.2       7.47175E-04
  1600    1440.0       7.45818E-04
  1601    1440.8       7.44465E-04
  1602    1441.6       7.43115E-04
  1603    1442.4       7.41768E-04
  1604    1443.2       7.40424E-04
  1605    1444.0       7.39083E-04
  1606    1444.8       7.37745E-04
  1607    1445.6       7.36410E-04
  1608    1446.4       7.35078E-04
  1609    1447.2       7.33749E-04
  1610    1448.0       7.32424E-04
  1611    1448.8       7.31101E-04
  1612    1449.6       7.29782E-04
  1613    1450.4       7.28465E-04
  1614    1451.2       7.27151E-04
  1615    1452.0       7.25840E-04
  1616    1452.8       7.24533E-04
  1617    1453.6       7.23228E-04
  1618    1454.4       7.21926E-04
  1619    1455.2       7.20627E-04
  1620    1456.0       7.19332E-04
  1621    1456.8       7.18039E-04
  1622    1457.6       7.16749E-04
  1623    1458.4       7.15462E-04
  1624    1459.2       7.14178E-04
  1625    1460.0       7.12896E-04
  1626    1460.8       7.11618E-04
  1627    1461.6       7.10342E-04
  1628    1462.4       7.09070E-04
  1629    1463.2       7.07800E-04
  1630    1464.0       7.06533E-04
  1631    1464.8       7.05269E-04
  1632    1465.6       7.04008E-04
  1633    1466.4       7.02750E-04
  1634    1467.2       7.01495E-04
  1635    1468.0       7.00242E-04
  1636    1468.8       6.98992E-04
  1637    1469.6       6.97746E-04
  1638    1470.4       6.96501E-04
  1639    1471.2       6.95260E-04
  1640    1472.0       6.94022E-04
  1641    1472.8       6.92786E-04
  1642    1473.6       6.91553E-04
  1643    1474.4       6.90322E-04
  1644    1475.2       6.89095E-04
  1645    1476.0       6.87870E-04
  1646    1476.8       6.86648E-04
  1647    1477.6       6.85429E-04
  1648    1478.4       6.84213E-04
  1649    1479.2       6.82999E-04
  1650    1480.0       6.81813E-04
